# Extracted from file: jc_103.fits
#SIMPLETruefile does conform to FITS standard
#BITPIX16number of bits per data pixel
#NAXIS0number of data axes
#EXTENDTrueFITS dataset may contain extensions
#COMMENT  FITS (Flexible Image Transport System) format defined in Astronomy and
#COMMENT  Astrophysics Supplement Series v44/p363, v44/p371, v73/p359, v73/p365.
#COMMENT  Contact the NASA Science Office of Standards and Technology for the
#COMMENT  FITS Definition document #100 and other FITS information.
#ORIGINSTScI-STSDAS/TABLESTables version 1999-03-22
#FILENAMEjc_103.fitsname of file
#DESCRIP= 'Jacobi-Christenson atlas'
#DBTABLE= 'CRGRIDS'
#OBSMODE= ' '
#COMMENT  = 'The Jocobi-Christenson atlas has been extracted from'
#COMMENT  = 'the ATLAS library established at STScI by K.Horne.'
#HISTROY= 'The SDAS tables were generated from the ASCII lists in'
#HISTORY  = 'the ATLAS library. Each table was generated separatly'
#HISTORY  = 'and is in agreement with CDBS Data Design, dated'
#HISTORY  = 'February 28, 1988.'
#TARGETID= ' '
#  
#Columns WAVELENGTH FLUX
#Units  Angstroms FLAM
3510.0  2.846e-14
3511.4  2.457e-14
3512.8  1.227e-14
3514.2  3.838e-15
3515.6  1.365e-14
3517.0  2.323e-14
3518.4  2.818e-14
3519.8  2.844e-14
3521.2  2.227e-14
3522.6  1.484e-14
3524.0  1.678e-14
3525.4  1.431e-14
3526.8  8.59e-15
3528.2  1.074e-14
3529.6  1.976e-14
3531.0  3.021e-14
3532.4  3.567e-14
3533.8  3.627e-14
3535.2  3.032e-14
3536.6  2.472e-14
3538.0  2.446e-14
3539.4  2.448e-14
3540.8  2.568e-14
3542.2  2.481e-14
3543.6  2.753e-14
3545.0  3.924e-14
3546.4  4.314e-14
3547.8  3.375e-14
3549.2  2.395e-14
3550.6  2.594e-14
3552.0  3.114e-14
3553.4  2.719e-14
3554.8  2.463e-14
3556.2  2.158e-14
3557.6  2.704e-14
3559.0  3.854e-14
3560.4  4.168e-14
3561.8  3.262e-14
3563.2  2.788e-14
3564.6  2.015e-14
3566.0  9.693e-15
3567.4  2.599e-15
3568.8  2.769e-15
3570.2  8.204e-15
3571.6  1.202e-14
3573.0  1.268e-14
3574.4  1.264e-14
3575.8  8.5e-15
3577.2  1.006e-14
3578.6  2.178e-14
3580.0  3.185e-14
3581.4  3.631e-14
3582.8  3.7e-14
3584.2  2.823e-14
3585.6  2.069e-14
3587.0  1.843e-14
3588.4  1.603e-14
3589.8  1.108e-14
3591.2  1.937e-14
3592.6  2e-14
3594.0  1.837e-14
3595.4  1.808e-14
3596.8  1.844e-14
3598.2  2.067e-14
3599.6  1.567e-14
3601.0  2.334e-14
3602.4  2.686e-14
3603.8  2.216e-14
3605.2  1.838e-14
3606.6  1.795e-14
3608.0  1.545e-14
3609.4  6.439e-15
3610.8  1.777e-15
3612.2  9.473e-15
3613.6  1.995e-14
3615.0  2.295e-14
3616.4  2.111e-14
3617.8  2.307e-14
3619.2  2.345e-14
3620.6  1.973e-14
3622.0  1.883e-14
3623.4  2.373e-14
3624.8  2.939e-14
3626.2  2.997e-14
3627.6  2.64e-14
3629.0  2.711e-14
3630.4  2.807e-14
3631.8  2.474e-14
3633.2  2.435e-14
3634.6  2.58e-14
3636.0  2.567e-14
3637.4  2.329e-14
3638.8  2.469e-14
3640.2  3.474e-14
3641.6  4.124e-14
3643.0  3.698e-14
3644.4  3.383e-14
3645.8  3.19e-14
3647.2  2.537e-14
3648.6  1.877e-14
3650.0  1.895e-14
3651.4  2.826e-14
3652.8  2.907e-14
3654.2  2.873e-14
3655.6  3.714e-14
3657.0  4.202e-14
3658.4  3.748e-14
3659.8  4.429e-14
3661.2  3.584e-14
3662.6  3.228e-14
3664.0  3.721e-14
3665.4  3.604e-14
3666.8  3.926e-14
3668.2  4.184e-14
3669.6  3.806e-14
3671.0  3.262e-14
3672.4  2.99e-14
3673.8  3.048e-14
3675.2  2.919e-14
3676.6  3.163e-14
3678.0  3.791e-14
3679.4  3.523e-14
3680.8  2.984e-14
3682.2  2.681e-14
3683.6  2.71e-14
3685.0  2.971e-14
3686.4  3.176e-14
3687.8  2.826e-14
3689.2  2.495e-14
3690.6  2.725e-14
3692.0  3.26e-14
3693.4  4.158e-14
3694.8  4.149e-14
3696.2  3.587e-14
3697.6  3.432e-14
3699.0  3.726e-14
3700.4  3.788e-14
3701.8  2.804e-14
3703.2  2.19e-14
3704.6  1.681e-14
3706.0  1.575e-14
3707.4  2.154e-14
3708.8  2.894e-14
3710.2  2.964e-14
3711.6  3.086e-14
3713.0  3.54e-14
3714.4  3.483e-14
3715.8  3.179e-14
3717.2  2.915e-14
3718.6  2.523e-14
3720.0  1.908e-14
3721.4  1.788e-14
3722.8  2.34e-14
3724.2  2.618e-14
3725.6  2.653e-14
3727.0  2.868e-14
3728.4  2.898e-14
3729.8  2.046e-14
3731.2  1.519e-14
3732.6  1.848e-14
3734.0  1.692e-14
3735.4  1.804e-14
3736.8  1.785e-14
3738.2  1.992e-14
3739.6  2.58e-14
3741.0  2.996e-14
3742.4  2.985e-14
3743.8  2.703e-14
3745.2  2.414e-14
3746.6  2.207e-14
3748.0  1.781e-14
3749.4  1.636e-14
3750.8  2.157e-14
3752.2  2.72e-14
3753.6  3.219e-14
3755.0  3.436e-14
3756.4  3.13e-14
3757.8  2.467e-14
3759.2  1.56e-14
3760.6  1.487e-14
3762.0  1.916e-14
3763.4  2.298e-14
3764.8  2.624e-14
3766.2  3.048e-14
3767.6  3.545e-14
3769.0  3.822e-14
3770.4  4.046e-14
3771.8  3.851e-14
3773.2  3.581e-14
3774.6  4.231e-14
3776.0  4.446e-14
3777.4  4.376e-14
3778.8  4.606e-14
3780.2  5.004e-14
3781.6  4.453e-14
3783.0  4.599e-14
3784.4  4.71e-14
3785.8  4.44e-14
3787.2  3.692e-14
3788.6  2.875e-14
3790.0  2.383e-14
3791.4  2.893e-14
3792.8  3.304e-14
3794.2  3.228e-14
3795.6  3.071e-14
3797.0  3.04e-14
3798.4  3.096e-14
3799.8  3.579e-14
3801.2  4.051e-14
3802.6  4.225e-14
3804.0  4.759e-14
3805.4  5.054e-14
3806.8  5.033e-14
3808.2  5.026e-14
3809.6  4.675e-14
3811.0  3.998e-14
3812.4  3.487e-14
3813.8  3.104e-14
3815.2  3.042e-14
3816.6  3.366e-14
3818.0  3.123e-14
3819.4  2.648e-14
3820.8  2.36e-14
3822.2  2.179e-14
3823.6  2.256e-14
3825.0  2.574e-14
3826.4  2.865e-14
3827.8  3.278e-14
3829.2  3.491e-14
3830.6  3.341e-14
3832.0  3.38e-14
3833.4  3.064e-14
3834.8  2.893e-14
3836.2  2.993e-14
3837.6  2.783e-14
3839.0  2.835e-14
3840.4  2.95e-14
3841.8  2.987e-14
3843.2  3.219e-14
3844.6  3.438e-14
3846.0  3.24e-14
3847.4  2.82e-14
3848.8  3.034e-14
3850.2  3.375e-14
3851.6  3.197e-14
3853.0  3.646e-14
3854.4  3.535e-14
3855.8  2.92e-14
3857.2  2.566e-14
3858.6  3.146e-14
3860.0  3.114e-14
3861.4  3.03e-14
3862.8  3.081e-14
3864.2  3.259e-14
3865.6  3.571e-14
3867.0  3.922e-14
3868.4  3.773e-14
3869.8  3.468e-14
3871.2  3.262e-14
3872.6  3.326e-14
3874.0  3.323e-14
3875.4  3.835e-14
3876.8  3.9e-14
3878.2  3.711e-14
3879.6  3.749e-14
3881.0  4.032e-14
3882.4  3.591e-14
3883.8  3.268e-14
3885.2  3.414e-14
3886.6  3.715e-14
3888.0  3.856e-14
3889.4  4.443e-14
3890.8  4.805e-14
3892.2  4.589e-14
3893.6  4.351e-14
3895.0  3.824e-14
3896.4  3.516e-14
3897.8  3.896e-14
3899.2  4.491e-14
3900.6  4.87e-14
3902.0  4.752e-14
3903.4  4.353e-14
3904.8  3.797e-14
3906.2  3.147e-14
3907.6  3.021e-14
3909.0  3.78e-14
3910.4  4.568e-14
3911.8  4.698e-14
3913.2  4.746e-14
3914.6  4.551e-14
3916.0  4.368e-14
3917.4  4.208e-14
3918.8  3.612e-14
3920.2  3.206e-14
3921.6  2.793e-14
3923.0  2.621e-14
3924.4  2.99e-14
3925.8  2.879e-14
3927.2  2.621e-14
3928.6  2.28e-14
3930.0  1.959e-14
3931.4  1.603e-14
3932.8  1.583e-14
3934.2  1.544e-14
3935.6  1.502e-14
3937.0  1.52e-14
3938.4  2.023e-14
3939.8  2.482e-14
3941.2  2.654e-14
3942.6  2.634e-14
3944.0  2.977e-14
3945.4  3.564e-14
3946.8  3.726e-14
3948.2  3.756e-14
3949.6  4.067e-14
3951.0  4.76e-14
3952.4  4.845e-14
3953.8  4.733e-14
3955.2  4.673e-14
3956.6  4.688e-14
3958.0  4.239e-14
3959.4  3.635e-14
3960.8  2.949e-14
3962.2  2.385e-14
3963.6  2.379e-14
3965.0  2.282e-14
3966.4  1.926e-14
3967.8  1.57e-14
3969.2  1.501e-14
3970.6  2.035e-14
3972.0  2.322e-14
3973.4  2.615e-14
3974.8  3.244e-14
3976.2  4.097e-14
3977.6  4.576e-14
3979.0  4.719e-14
3980.4  4.816e-14
3981.8  5.031e-14
3983.2  5.651e-14
3984.6  6.305e-14
3986.0  6.723e-14
3987.4  6.863e-14
3988.8  6.611e-14
3990.2  6.606e-14
3991.6  6.975e-14
3993.0  7.028e-14
3994.4  6.74e-14
3995.8  6.569e-14
3997.2  6.681e-14
3998.6  6.852e-14
4000.0  7.185e-14
4001.4  7.932e-14
4002.8  8.322e-14
4004.2  7.987e-14
4005.6  7.756e-14
4007.0  7.703e-14
4008.4  8.016e-14
4009.8  8.362e-14
4011.2  8.436e-14
4012.6  8.66e-14
4014.0  8.902e-14
4015.4  9.028e-14
4016.8  9.062e-14
4018.2  8.66e-14
4019.6  8.501e-14
4021.0  8.459e-14
4022.4  8.325e-14
4023.8  8.516e-14
4025.2  9.012e-14
4026.6  9.334e-14
4028.0  9.016e-14
4029.4  8.115e-14
4030.8  7.146e-14
4032.2  6.651e-14
4033.6  7.279e-14
4035.0  8.459e-14
4036.4  9.287e-14
4037.8  1.027e-13
4039.2  1.113e-13
4040.6  1.064e-13
4042.0  9.654e-14
4043.4  8.566e-14
4044.8  7.65e-14
4046.2  7.542e-14
4047.6  7.84e-14
4049.0  8.745e-14
4050.4  9.828e-14
4051.8  1.079e-13
4053.2  1.053e-13
4054.6  9.906e-14
4056.0  9.598e-14
4057.4  9.399e-14
4058.8  9.439e-14
4060.2  9.721e-14
4061.6  9.241e-14
4063.0  8.461e-14
4064.4  8.154e-14
4065.8  9.048e-14
4067.2  1e-13
4068.6  1.017e-13
4070.0  9.932e-14
4071.4  9.99e-14
4072.8  1.012e-13
4074.2  9.819e-14
4075.6  9.244e-14
4077.0  8.741e-14
4078.4  9.605e-14
4079.8  1.106e-13
4081.2  1.176e-13
4082.6  1.203e-13
4084.0  1.224e-13
4085.4  1.277e-13
4086.8  1.331e-13
4088.2  1.36e-13
4089.6  1.333e-13
4091.0  1.272e-13
4092.4  1.228e-13
4093.8  1.154e-13
4095.2  1.045e-13
4096.6  9.435e-14
4098.0  9.078e-14
4099.4  8.921e-14
4100.8  8.952e-14
4102.2  9.223e-14
4103.6  9.941e-14
4105.0  1.059e-13
4106.4  1.113e-13
4107.8  1.142e-13
4109.2  1.097e-13
4110.6  1.03e-13
4112.0  1.004e-13
4113.4  1.016e-13
4114.8  1.006e-13
4116.2  9.869e-14
4117.6  9.774e-14
4119.0  9.829e-14
4120.4  9.98e-14
4121.8  1.047e-13
4123.2  1.143e-13
4124.6  1.254e-13
4126.0  1.298e-13
4127.4  1.206e-13
4128.8  1.113e-13
4130.2  1.044e-13
4131.6  9.783e-14
4133.0  9.83e-14
4134.4  1.023e-13
4135.8  1.083e-13
4137.2  1.153e-13
4138.6  1.145e-13
4140.0  1.044e-13
4141.4  9.452e-14
4142.8  8.833e-14
4144.2  8.565e-14
4145.6  9.432e-14
4147.0  1.047e-13
4148.4  1.096e-13
4149.8  1.057e-13
4151.2  1.092e-13
4152.6  1.175e-13
4154.0  1.233e-13
4155.4  1.269e-13
4156.8  1.314e-13
4158.2  1.345e-13
4159.6  1.368e-13
4161.0  1.359e-13
4162.4  1.317e-13
4163.8  1.271e-13
4165.2  1.239e-13
4166.6  1.219e-13
4168.0  1.217e-13
4169.4  1.185e-13
4170.8  1.078e-13
4172.2  9.331e-14
4173.6  8.831e-14
4175.0  9.552e-14
4176.4  1.056e-13
4177.8  1.168e-13
4179.2  1.258e-13
4180.6  1.324e-13
4182.0  1.373e-13
4183.4  1.36e-13
4184.8  1.317e-13
4186.2  1.302e-13
4187.6  1.285e-13
4189.0  1.228e-13
4190.4  1.2e-13
4191.8  1.254e-13
4193.2  1.342e-13
4194.6  1.312e-13
4196.0  1.239e-13
4197.4  1.138e-13
4198.8  1.032e-13
4200.2  9.873e-14
4201.6  9.954e-14
4203.0  1.041e-13
4204.4  1.116e-13
4205.8  1.15e-13
4207.2  1.216e-13
4208.6  1.278e-13
4210.0  1.263e-13
4211.4  1.28e-13
4212.8  1.266e-13
4214.2  1.237e-13
4215.6  1.192e-13
4217.0  1.206e-13
4218.4  1.219e-13
4219.8  1.21e-13
4221.2  1.136e-13
4222.6  9.911e-14
4224.0  8.024e-14
4225.4  6.503e-14
4226.8  5.758e-14
4228.2  5.562e-14
4229.6  7.05e-14
4231.0  8.871e-14
4232.4  1.019e-13
4233.8  1.086e-13
4235.2  1.142e-13
4236.6  1.199e-13
4238.0  1.243e-13
4239.4  1.272e-13
4240.8  1.313e-13
4242.2  1.381e-13
4243.6  1.469e-13
4245.0  1.575e-13
4246.4  1.562e-13
4247.8  1.469e-13
4249.2  1.364e-13
4250.6  1.247e-13
4252.0  1.185e-13
4253.4  1.145e-13
4254.8  1.137e-13
4256.2  1.191e-13
4257.6  1.234e-13
4259.0  1.221e-13
4260.4  1.221e-13
4261.8  1.292e-13
4263.2  1.432e-13
4264.6  1.587e-13
4266.0  1.672e-13
4267.4  1.656e-13
4268.8  1.55e-13
4270.2  1.349e-13
4271.6  1.161e-13
4273.0  1.094e-13
4274.4  1.077e-13
4275.8  1.159e-13
4277.2  1.321e-13
4278.6  1.442e-13
4280.0  1.514e-13
4281.4  1.519e-13
4282.8  1.476e-13
4284.2  1.418e-13
4285.6  1.351e-13
4287.0  1.292e-13
4288.4  1.19e-13
4289.8  1.061e-13
4291.2  1.055e-13
4292.6  1.166e-13
4294.0  1.325e-13
4295.4  1.394e-13
4296.8  1.361e-13
4298.2  1.3e-13
4299.6  1.218e-13
4301.0  1.157e-13
4302.4  1.213e-13
4303.8  1.275e-13
4305.2  1.3e-13
4306.6  1.25e-13
4308.0  1.154e-13
4309.4  1.211e-13
4310.8  1.361e-13
4312.2  1.571e-13
4313.6  1.632e-13
4315.0  1.715e-13
4316.4  1.868e-13
4317.8  2.035e-13
4319.2  2.072e-13
4320.6  1.967e-13
4322.0  1.885e-13
4323.4  1.799e-13
4324.8  1.671e-13
4326.2  1.578e-13
4327.6  1.685e-13
4329.0  1.861e-13
4330.4  2.011e-13
4331.8  2.08e-13
4333.2  2.178e-13
4334.6  2.258e-13
4336.0  2.236e-13
4337.4  2.059e-13
4338.8  1.837e-13
4340.2  1.737e-13
4341.6  1.795e-13
4343.0  1.929e-13
4344.4  2.01e-13
4345.8  2.025e-13
4347.2  2.056e-13
4348.6  2.13e-13
4350.0  2.136e-13
4351.4  2e-13
4352.8  1.856e-13
4354.2  1.818e-13
4355.6  1.927e-13
4357.0  2.083e-13
4358.4  2.088e-13
4359.8  2.015e-13
4361.2  2.059e-13
4362.6  2.194e-13
4364.0  2.285e-13
4365.4  2.306e-13
4366.8  2.278e-13
4368.2  2.205e-13
4369.6  2.161e-13
4371.0  2.179e-13
4372.4  2.142e-13
4373.8  2.058e-13
4375.2  1.972e-13
4376.6  2.004e-13
4378.0  2.137e-13
4379.4  2.151e-13
4380.8  2.021e-13
4382.2  1.778e-13
4383.6  1.58e-13
4385.0  1.581e-13
4386.4  1.702e-13
4387.8  1.865e-13
4389.2  1.9e-13
4390.6  1.928e-13
4392.0  1.994e-13
4393.4  2.071e-13
4394.8  2.151e-13
4396.2  2.295e-13
4397.6  2.358e-13
4399.0  2.316e-13
4400.4  2.19e-13
4401.8  2.159e-13
4403.2  2.001e-13
4404.6  1.796e-13
4406.0  1.628e-13
4407.4  1.628e-13
4408.8  1.776e-13
4410.2  2.036e-13
4411.6  2.235e-13
4413.0  2.269e-13
4414.4  2.203e-13
4415.8  2.11e-13
4417.2  2.171e-13
4418.6  2.32e-13
4420.0  2.409e-13
4421.4  2.333e-13
4422.8  2.231e-13
4424.2  2.169e-13
4425.6  2.133e-13
4427.0  2.156e-13
4428.4  2.186e-13
4429.8  2.216e-13
4431.2  2.236e-13
4432.6  2.221e-13
4434.0  2.131e-13
4435.4  2.072e-13
4436.8  2.164e-13
4438.2  2.325e-13
4439.6  2.426e-13
4441.0  2.349e-13
4442.4  2.259e-13
4443.8  2.311e-13
4445.2  2.409e-13
4446.6  2.499e-13
4448.0  2.517e-13
4449.4  2.476e-13
4450.8  2.442e-13
4452.2  2.401e-13
4453.6  2.311e-13
4455.0  2.178e-13
4456.4  2.105e-13
4457.8  2.125e-13
4459.2  2.115e-13
4460.6  1.987e-13
4462.0  1.925e-13
4463.4  2.106e-13
4464.8  2.161e-13
4466.2  2.12e-13
4467.6  2.089e-13
4469.0  2.181e-13
4470.4  2.281e-13
4471.8  2.385e-13
4473.2  2.498e-13
4474.6  2.605e-13
4476.0  2.724e-13
4477.4  2.75e-13
4478.8  2.678e-13
4480.2  2.519e-13
4481.6  2.468e-13
4483.0  2.62e-13
4484.4  2.754e-13
4485.8  2.778e-13
4487.2  2.676e-13
4488.6  2.522e-13
4490.0  2.571e-13
4491.4  2.687e-13
4492.8  2.708e-13
4494.2  2.563e-13
4495.6  2.451e-13
4497.0  2.581e-13
4498.4  2.729e-13
4499.8  2.837e-13
4501.2  2.926e-13
4502.6  3.07e-13
4504.0  3.061e-13
4505.4  2.954e-13
4506.8  2.88e-13
4508.2  2.91e-13
4509.6  2.941e-13
4511.0  2.837e-13
4512.4  2.739e-13
4513.8  2.719e-13
4515.2  2.809e-13
4516.6  2.794e-13
4518.0  2.797e-13
4519.4  2.871e-13
4520.8  2.893e-13
4522.2  2.74e-13
4523.6  2.567e-13
4525.0  2.435e-13
4526.4  2.333e-13
4527.8  2.316e-13
4529.2  2.387e-13
4530.6  2.478e-13
4532.0  2.431e-13
4533.4  2.316e-13
4534.8  2.359e-13
4536.2  2.642e-13
4537.6  2.888e-13
4539.0  2.878e-13
4540.4  2.826e-13
4541.8  2.82e-13
4543.2  2.8e-13
4544.6  2.762e-13
4546.0  2.711e-13
4547.4  2.689e-13
4548.8  2.727e-13
4550.2  2.729e-13
4551.6  2.606e-13
4553.0  2.518e-13
4554.4  2.719e-13
4555.8  3.053e-13
4557.2  3.295e-13
4558.6  3.355e-13
4560.0  3.253e-13
4561.4  3.235e-13
4562.8  3.227e-13
4564.2  3.283e-13
4565.6  3.441e-13
4567.0  3.542e-13
4568.4  3.344e-13
4569.8  3.214e-13
4571.2  3.207e-13
4572.6  3.255e-13
4574.0  3.269e-13
4575.4  3.266e-13
4576.8  3.194e-13
4578.2  3.138e-13
4579.6  3.156e-13
4581.0  3.238e-13
4582.4  3.185e-13
4583.8  2.88e-13
4585.2  2.792e-13
4586.6  2.832e-13
4588.0  2.904e-13
4589.4  2.904e-13
4590.8  2.828e-13
4592.2  2.754e-13
4593.6  2.738e-13
4595.0  2.792e-13
4596.4  2.856e-13
4597.8  2.855e-13
4599.2  2.804e-13
4600.6  2.847e-13
4602.0  2.95e-13
4603.4  3.016e-13
4604.8  3.176e-13
4606.2  3.347e-13
4607.6  3.447e-13
4609.0  3.496e-13
4610.4  3.539e-13
4611.8  3.549e-13
4613.2  3.493e-13
4614.6  3.527e-13
4616.0  3.651e-13
4617.4  3.716e-13
4618.8  3.662e-13
4620.2  3.586e-13
4621.6  3.483e-13
4623.0  3.38e-13
4624.4  3.296e-13
4625.8  3.11e-13
4627.2  2.919e-13
4628.6  2.916e-13
4630.0  2.961e-13
4631.4  2.877e-13
4632.8  2.741e-13
4634.2  2.681e-13
4635.6  2.733e-13
4637.0  2.72e-13
4638.4  2.65e-13
4639.8  2.647e-13
4641.2  2.685e-13
4642.6  2.718e-13
4644.0  2.708e-13
4645.4  2.766e-13
4646.8  2.809e-13
4648.2  2.878e-13
4649.6  2.995e-13
4651.0  3.099e-13
4652.4  3.085e-13
4653.8  2.985e-13
4655.2  3.013e-13
4656.6  3.264e-13
4658.0  3.596e-13
4659.4  3.673e-13
4660.8  3.564e-13
4662.2  3.492e-13
4663.6  3.408e-13
4665.0  3.215e-13
4666.4  2.894e-13
4667.8  2.746e-13
4669.2  2.799e-13
4670.6  2.835e-13
4672.0  2.823e-13
4673.4  2.834e-13
4674.8  2.895e-13
4676.2  2.961e-13
4677.6  3.02e-13
4679.0  2.995e-13
4680.4  2.923e-13
4681.8  2.88e-13
4683.2  2.948e-13
4684.6  3.016e-13
4686.0  3.027e-13
4687.4  3.026e-13
4688.8  3.026e-13
4690.2  3.082e-13
4691.6  3.268e-13
4693.0  3.432e-13
4694.4  3.535e-13
4695.8  3.54e-13
4697.2  3.489e-13
4698.6  3.362e-13
4700.0  3.309e-13
4701.4  3.376e-13
4702.8  3.473e-13
4704.2  3.574e-13
4705.6  3.548e-13
4707.0  3.452e-13
4708.4  3.426e-13
4709.8  3.475e-13
4711.2  3.577e-13
4712.6  3.575e-13
4714.0  3.409e-13
4715.4  3.277e-13
4716.8  3.255e-13
4718.2  3.346e-13
4719.6  3.539e-13
4721.0  3.601e-13
4722.4  3.557e-13
4723.8  3.586e-13
4725.2  3.591e-13
4726.6  3.469e-13
4728.0  3.266e-13
4729.4  3.207e-13
4730.8  3.28e-13
4732.2  3.44e-13
4733.6  3.603e-13
4735.0  3.689e-13
4736.4  3.69e-13
4737.8  3.662e-13
4739.2  3.624e-13
4740.6  3.578e-13
4742.0  3.521e-13
4743.4  3.512e-13
4744.8  3.613e-13
4746.2  3.746e-13
4747.6  3.806e-13
4749.0  3.876e-13
4750.4  3.988e-13
4751.8  4.066e-13
4753.2  3.984e-13
4754.6  3.899e-13
4756.0  3.833e-13
4757.4  3.806e-13
4758.8  3.635e-13
4760.2  3.329e-13
4761.6  2.916e-13
4763.0  2.616e-13
4764.4  2.485e-13
4765.8  2.268e-13
4767.2  2.277e-13
4768.6  2.373e-13
4770.0  2.46e-13
4771.4  2.512e-13
4772.8  2.512e-13
4774.2  2.609e-13
4775.6  2.69e-13
4777.0  2.752e-13
4778.4  2.756e-13
4779.8  2.671e-13
4781.2  2.645e-13
4782.6  2.617e-13
4784.0  2.59e-13
4785.4  2.575e-13
4786.8  2.558e-13
4788.2  2.666e-13
4789.6  2.841e-13
4791.0  3.008e-13
4792.4  3.126e-13
4793.8  3.213e-13
4795.2  3.324e-13
4796.6  3.342e-13
4798.0  3.262e-13
4799.4  3.211e-13
4800.8  3.253e-13
4802.2  3.321e-13
4803.6  3.269e-13
4805.0  3.036e-13
4806.4  2.744e-13
4807.8  2.532e-13
4809.2  2.474e-13
4810.6  2.535e-13
4812.0  2.606e-13
4813.4  2.658e-13
4814.8  2.639e-13
4816.2  2.626e-13
4817.6  2.756e-13
4819.0  2.919e-13
4820.4  2.992e-13
4821.8  3.014e-13
4823.2  3.037e-13
4824.6  3.065e-13
4826.0  3.111e-13
4827.4  3.149e-13
4828.8  3.137e-13
4830.2  3.1e-13
4831.6  3.15e-13
4833.0  3.309e-13
4834.4  3.36e-13
4835.8  3.372e-13
4837.2  3.38e-13
4838.6  3.287e-13
4840.0  3.206e-13
4841.4  3.155e-13
4842.8  3.186e-13
4844.2  3.176e-13
4845.6  3.119e-13
4847.0  3.103e-13
4848.4  3.173e-13
4849.8  3.185e-13
4851.2  3.113e-13
4852.6  3.029e-13
4854.0  3.048e-13
4855.4  3.137e-13
4856.8  3.206e-13
4858.2  3.084e-13
4859.6  2.93e-13
4861.0  2.935e-13
4862.4  3.023e-13
4863.8  3.121e-13
4865.2  3.155e-13
4866.6  3.206e-13
4868.0  3.253e-13
4869.4  3.235e-13
4870.8  3.27e-13
4872.2  3.325e-13
4873.6  3.428e-13
4875.0  3.547e-13
4876.4  3.558e-13
4877.8  3.501e-13
4879.2  3.411e-13
4880.6  3.404e-13
4882.0  3.452e-13
4883.4  3.46e-13
4884.8  3.491e-13
4886.2  3.51e-13
4887.6  3.621e-13
4889.0  3.611e-13
4890.4  3.652e-13
4891.8  3.839e-13
4893.2  4.035e-13
4894.6  4.174e-13
4896.0  4.204e-13
4897.4  4.154e-13
4898.8  4.177e-13
4900.2  4.198e-13
4901.6  4.159e-13
4903.0  4.186e-13
4904.4  4.316e-13
4905.8  4.277e-13
4907.2  4.145e-13
4908.6  4.117e-13
4910.0  4.173e-13
4911.4  4.261e-13
4912.8  4.339e-13
4914.2  4.375e-13
4915.6  4.405e-13
4917.0  4.329e-13
4918.4  4.101e-13
4919.8  3.886e-13
4921.2  3.917e-13
4922.6  4.083e-13
4924.0  4.218e-13
4925.4  4.372e-13
4926.8  4.605e-13
4928.2  4.831e-13
4929.6  4.959e-13
4931.0  4.921e-13
4932.4  4.721e-13
4933.8  4.575e-13
4935.2  4.548e-13
4936.6  4.455e-13
4938.0  4.359e-13
4939.4  4.386e-13
4940.8  4.506e-13
4942.2  4.749e-13
4943.6  4.977e-13
4945.0  5.091e-13
4946.4  5.11e-13
4947.8  5.085e-13
4949.2  5.236e-13
4950.6  5.187e-13
4952.0  4.841e-13
4953.4  4.105e-13
4954.8  3.247e-13
4956.2  2.601e-13
4957.6  2.405e-13
4959.0  2.385e-13
4960.4  2.438e-13
4961.8  2.479e-13
4963.2  2.494e-13
4964.6  2.471e-13
4966.0  2.475e-13
4967.4  2.464e-13
4968.8  2.67e-13
4970.2  2.81e-13
4971.6  2.914e-13
4973.0  3.011e-13
4974.4  3.104e-13
4975.8  3.176e-13
4977.2  3.116e-13
4978.6  3.016e-13
4980.0  2.899e-13
4981.4  2.79e-13
4982.8  2.834e-13
4984.2  3.058e-13
4985.6  3.266e-13
4987.0  3.331e-13
4988.4  3.365e-13
4989.8  3.371e-13
4991.2  3.307e-13
4992.6  3.304e-13
4994.0  3.311e-13
4995.4  3.245e-13
4996.8  3.161e-13
4998.2  3.045e-13
4999.6  2.94e-13
5001.0  2.912e-13
5002.4  2.886e-13
5003.8  2.806e-13
5005.2  2.769e-13
5006.6  2.784e-13
5008.0  2.828e-13
5009.4  2.887e-13
5010.8  2.876e-13
5012.2  2.735e-13
5013.6  2.596e-13
5015.0  2.626e-13
5016.4  2.76e-13
5017.8  2.907e-13
5019.2  3.006e-13
5020.6  2.991e-13
5022.0  2.825e-13
5023.4  2.884e-13
5024.8  2.995e-13
5026.2  3.087e-13
5027.6  3.189e-13
5029.0  3.345e-13
5030.4  3.506e-13
5031.8  3.561e-13
5033.2  3.599e-13
5034.6  3.532e-13
5036.0  3.394e-13
5037.4  3.351e-13
5038.8  3.257e-13
5040.2  3.135e-13
5041.6  3.236e-13
5043.0  3.532e-13
5044.4  3.85e-13
5045.8  4.031e-13
5047.2  3.938e-13
5048.6  3.707e-13
5050.0  3.566e-13
5051.4  3.541e-13
5052.8  3.58e-13
5054.2  3.667e-13
5055.6  3.784e-13
5057.0  3.948e-13
5058.4  4.108e-13
5059.8  4.192e-13
5061.2  4.177e-13
5062.6  3.985e-13
5064.0  3.73e-13
5065.4  3.599e-13
5066.8  3.615e-13
5068.2  3.758e-13
5069.6  3.818e-13
5071.0  3.775e-13
5072.4  3.81e-13
5073.8  4.013e-13
5075.2  4.099e-13
5076.6  4.109e-13
5078.0  3.989e-13
5079.4  3.783e-13
5080.8  3.574e-13
5082.2  3.564e-13
5083.6  3.637e-13
5085.0  3.834e-13
5086.4  3.999e-13
5087.8  4.099e-13
5089.2  4.168e-13
5090.6  4.183e-13
5092.0  4.3e-13
5093.4  4.35e-13
5094.8  4.305e-13
5096.2  4.127e-13
5097.6  4.057e-13
5099.0  4.021e-13
5100.4  4.057e-13
5101.8  4.131e-13
5103.2  4.167e-13
5104.6  4.083e-13
5106.0  3.972e-13
5107.4  3.916e-13
5108.8  3.935e-13
5110.2  3.997e-13
5111.6  4.126e-13
5113.0  4.223e-13
5114.4  4.407e-13
5115.8  4.621e-13
5117.2  4.666e-13
5118.6  4.558e-13
5120.0  4.376e-13
5121.4  4.199e-13
5122.8  4.048e-13
5124.2  3.951e-13
5125.6  3.903e-13
5127.0  3.864e-13
5128.4  3.868e-13
5129.8  4.058e-13
5131.2  4.381e-13
5132.6  4.542e-13
5134.0  4.646e-13
5135.4  4.663e-13
5136.8  4.594e-13
5138.2  4.434e-13
5139.6  4.378e-13
5141.0  4.396e-13
5142.4  4.343e-13
5143.8  4.114e-13
5145.2  4.057e-13
5146.6  4.057e-13
5148.0  4.057e-13
5149.4  4.024e-13
5150.8  3.98e-13
5152.2  3.79e-13
5153.6  3.92e-13
5155.0  4.309e-13
5156.4  4.662e-13
5157.8  4.868e-13
5159.2  4.86e-13
5160.6  4.798e-13
5162.0  4.653e-13
5163.4  4.288e-13
5164.8  3.661e-13
5166.2  2.819e-13
5167.6  2.202e-13
5169.0  2.028e-13
5170.4  1.996e-13
5171.8  1.962e-13
5173.2  2.037e-13
5174.6  2.228e-13
5176.0  2.371e-13
5177.4  2.444e-13
5178.8  2.506e-13
5180.2  2.533e-13
5181.6  2.474e-13
5183.0  2.489e-13
5184.4  2.651e-13
5185.8  2.867e-13
5187.2  3.101e-13
5188.6  3.202e-13
5190.0  3.148e-13
5191.4  3.08e-13
5192.8  3.041e-13
5194.2  3.171e-13
5195.6  3.461e-13
5197.0  3.669e-13
5198.4  3.735e-13
5199.8  3.658e-13
5201.2  3.471e-13
5202.6  3.182e-13
5204.0  2.856e-13
5205.4  2.693e-13
5206.8  2.677e-13
5208.2  2.783e-13
5209.6  2.953e-13
5211.0  3.384e-13
5212.4  3.731e-13
5213.8  3.92e-13
5215.2  3.959e-13
5216.6  4.134e-13
5218.0  4.135e-13
5219.4  4.209e-13
5220.8  4.245e-13
5222.2  4.175e-13
5223.6  3.95e-13
5225.0  3.751e-13
5226.4  3.886e-13
5227.8  4.205e-13
5229.2  4.481e-13
5230.6  4.6e-13
5232.0  4.601e-13
5233.4  4.615e-13
5234.8  4.671e-13
5236.2  4.831e-13
5237.6  4.739e-13
5239.0  4.503e-13
5240.4  4.401e-13
5241.8  4.407e-13
5243.2  4.482e-13
5244.6  4.292e-13
5246.0  3.969e-13
5247.4  3.836e-13
5248.8  3.819e-13
5250.2  3.919e-13
5251.6  4.056e-13
5253.0  4.164e-13
5254.4  4.302e-13
5255.8  4.472e-13
5257.2  4.692e-13
5258.6  4.78e-13
5260.0  4.561e-13
5261.4  4.279e-13
5262.8  3.998e-13
5264.2  3.813e-13
5265.6  3.785e-13
5267.0  3.779e-13
5268.4  3.705e-13
5269.8  3.729e-13
5271.2  4.112e-13
5272.6  4.474e-13
5274.0  4.683e-13
5275.4  4.84e-13
5276.8  4.985e-13
5278.2  5.087e-13
5279.6  5.08e-13
5281.0  5.051e-13
5282.4  5.059e-13
5283.8  5.209e-13
5285.2  5.368e-13
5286.6  5.473e-13
5288.0  5.529e-13
5289.4  5.504e-13
5290.8  5.472e-13
5292.2  5.451e-13
5293.6  5.333e-13
5295.0  5.102e-13
5296.4  4.827e-13
5297.8  4.783e-13
5299.2  4.929e-13
5300.6  5.164e-13
5302.0  5.485e-13
5303.4  5.773e-13
5304.8  5.835e-13
5306.2  5.75e-13
5307.6  5.64e-13
5309.0  5.543e-13
5310.4  5.52e-13
5311.8  5.502e-13
5313.2  5.445e-13
5314.6  5.54e-13
5316.0  5.566e-13
5317.4  5.372e-13
5318.8  5.319e-13
5320.2  5.362e-13
5321.6  5.363e-13
5323.0  5.24e-13
5324.4  5.12e-13
5325.8  4.823e-13
5327.2  4.491e-13
5328.6  4.433e-13
5330.0  4.979e-13
5331.4  5.226e-13
5332.8  5.374e-13
5334.2  5.495e-13
5335.6  5.517e-13
5337.0  5.422e-13
5338.4  5.248e-13
5339.8  5.125e-13
5341.2  5.158e-13
5342.6  5.282e-13
5344.0  5.366e-13
5345.4  5.378e-13
5346.8  5.355e-13
5348.2  5.391e-13
5349.6  5.566e-13
5351.0  5.806e-13
5352.4  6.11e-13
5353.8  6.301e-13
5355.2  6.267e-13
5356.6  6.11e-13
5358.0  5.875e-13
5359.4  5.775e-13
5360.8  5.749e-13
5362.2  5.686e-13
5363.6  5.613e-13
5365.0  5.449e-13
5366.4  5.479e-13
5367.8  5.423e-13
5369.2  5.222e-13
5370.6  5.202e-13
5372.0  5.349e-13
5373.4  5.586e-13
5374.8  5.79e-13
5376.2  5.873e-13
5377.6  5.954e-13
5379.0  5.98e-13
5380.4  5.923e-13
5381.8  5.965e-13
5383.2  5.908e-13
5384.6  5.785e-13
5386.0  5.796e-13
5387.4  5.657e-13
5388.8  5.469e-13
5390.2  5.351e-13
5391.6  5.427e-13
5393.0  5.41e-13
5394.4  5.306e-13
5395.8  5.193e-13
5397.2  5.364e-13
5398.6  5.673e-13
5400.0  5.741e-13
5401.4  5.585e-13
5402.8  5.416e-13
5404.2  5.282e-13
5405.6  5.292e-13
5407.0  5.287e-13
5408.4  5.197e-13
5409.8  5.281e-13
5411.2  5.594e-13
5412.6  5.979e-13
5414.0  6.092e-13
5415.4  6.177e-13
5416.8  6.253e-13
5418.2  6.257e-13
5419.6  6.243e-13
5421.0  6.18e-13
5422.4  6.138e-13
5423.8  6.159e-13
5425.2  6.128e-13
5426.6  6.013e-13
5428.0  5.809e-13
5429.4  5.659e-13
5430.8  5.611e-13
5432.2  5.514e-13
5433.6  5.458e-13
5435.0  5.509e-13
5436.4  5.622e-13
5437.8  5.856e-13
5439.2  6.194e-13
5440.6  6.471e-13
5442.0  6.562e-13
5443.4  6.361e-13
5444.8  5.754e-13
5446.2  4.976e-13
5447.6  4.381e-13
5449.0  4.041e-13
5450.4  3.94e-13
5451.8  3.845e-13
5453.2  3.69e-13
5454.6  3.606e-13
5456.0  3.624e-13
5457.4  3.769e-13
5458.8  3.879e-13
5460.2  3.999e-13
5461.6  4.173e-13
5463.0  4.295e-13
5464.4  4.318e-13
5465.8  4.349e-13
5467.2  4.343e-13
5468.6  4.475e-13
5470.0  4.421e-13
5471.4  4.375e-13
5472.8  4.378e-13
5474.2  4.396e-13
5475.6  4.364e-13
5477.0  4.484e-13
5478.4  4.64e-13
5479.8  4.686e-13
5481.2  4.601e-13
5482.6  4.685e-13
5484.0  4.845e-13
5485.4  4.897e-13
5486.8  4.902e-13
5488.2  4.884e-13
5489.6  4.859e-13
5491.0  4.871e-13
5492.4  4.972e-13
5493.8  5.025e-13
5495.2  4.926e-13
5496.6  4.765e-13
5498.0  4.515e-13
5499.4  4.404e-13
5500.8  4.469e-13
5502.2  4.516e-13
5503.6  4.5e-13
5505.0  4.42e-13
5506.4  4.456e-13
5507.8  4.585e-13
5509.2  4.69e-13
5510.6  4.627e-13
5512.0  4.403e-13
5513.4  4.373e-13
5514.8  4.436e-13
5516.2  4.618e-13
5517.6  5.003e-13
5519.0  5.255e-13
5520.4  5.347e-13
5521.8  5.335e-13
5523.2  5.285e-13
5524.6  5.28e-13
5526.0  5.189e-13
5527.4  5.121e-13
5528.8  5.141e-13
5530.2  5.286e-13
5531.6  5.31e-13
5533.0  5.264e-13
5534.4  5.19e-13
5535.8  5.325e-13
5537.2  5.42e-13
5538.6  5.459e-13
5540.0  5.509e-13
5541.4  5.6e-13
5542.8  5.581e-13
5544.2  5.506e-13
5545.6  5.441e-13
5547.0  5.551e-13
5548.4  5.671e-13
5549.8  5.691e-13
5551.2  5.649e-13
5552.6  5.624e-13
5554.0  5.587e-13
5555.4  5.501e-13
5556.8  5.384e-13
5558.2  5.313e-13
5559.6  5.368e-13
5561.0  5.417e-13
5562.4  5.44e-13
5563.8  5.501e-13
5565.2  5.481e-13
5566.6  5.376e-13
5568.0  5.293e-13
5569.4  5.301e-13
5570.8  5.336e-13
5572.2  5.285e-13
5573.6  5.242e-13
5575.0  5.304e-13
5576.4  5.49e-13
5577.8  5.636e-13
5579.2  5.613e-13
5580.6  5.55e-13
5582.0  5.462e-13
5583.4  5.348e-13
5584.8  5.31e-13
5586.2  5.251e-13
5587.6  5.145e-13
5589.0  5.137e-13
5590.4  5.112e-13
5591.8  5.143e-13
5593.2  5.162e-13
5594.6  5.187e-13
5596.0  5.196e-13
5597.4  4.9e-13
5598.8  4.524e-13
5600.2  4.372e-13
5601.6  4.451e-13
5603.0  4.474e-13
5604.4  4.484e-13
5605.8  4.444e-13
5607.2  4.654e-13
5608.6  4.773e-13
5610.0  4.825e-13
5611.4  4.901e-13
5612.8  4.932e-13
5614.2  4.801e-13
5615.6  4.646e-13
5617.0  4.548e-13
5618.4  4.509e-13
5619.8  4.471e-13
5621.2  4.512e-13
5622.6  4.605e-13
5624.0  4.577e-13
5625.4  4.508e-13
5626.8  4.529e-13
5628.2  4.508e-13
5629.6  4.412e-13
5631.0  4.432e-13
5632.4  4.554e-13
5633.8  4.649e-13
5635.2  4.694e-13
5636.6  4.733e-13
5638.0  4.704e-13
5639.4  4.517e-13
5640.8  4.461e-13
5642.2  4.482e-13
5643.6  4.492e-13
5645.0  4.57e-13
5646.4  4.706e-13
5647.8  4.819e-13
5649.2  4.914e-13
5650.6  4.971e-13
5652.0  5.142e-13
5653.4  5.238e-13
5654.8  5.246e-13
5656.2  5.218e-13
5657.6  4.958e-13
5659.0  4.858e-13
5660.4  4.876e-13
5661.8  4.882e-13
5663.2  4.817e-13
5664.6  4.815e-13
5666.0  4.846e-13
5667.4  4.924e-13
5668.8  4.812e-13
5670.2  4.626e-13
5671.6  4.64e-13
5673.0  4.767e-13
5674.4  4.963e-13
5675.8  5.101e-13
5677.2  5.195e-13
5678.6  5.285e-13
5680.0  5.326e-13
5681.4  5.279e-13
5682.8  5.276e-13
5684.2  5.34e-13
5685.6  5.372e-13
5687.0  5.25e-13
5688.4  5.256e-13
5689.8  5.416e-13
5691.2  5.514e-13
5692.6  5.655e-13
5694.0  5.626e-13
5695.4  5.452e-13
5696.8  5.44e-13
5698.2  5.387e-13
5699.6  5.275e-13
5701.0  5.223e-13
5702.4  5.232e-13
5703.8  5.359e-13
5705.2  5.492e-13
5706.6  5.463e-13
5708.0  5.348e-13
5709.4  5.341e-13
5710.8  5.362e-13
5712.2  5.465e-13
5713.6  5.474e-13
5715.0  5.545e-13
5716.4  5.605e-13
5717.8  5.578e-13
5719.2  5.528e-13
5720.6  5.648e-13
5722.0  5.828e-13
5723.4  5.819e-13
5724.8  5.698e-13
5726.2  5.6e-13
5727.6  5.418e-13
5729.0  5.526e-13
5730.4  5.723e-13
5731.8  5.862e-13
5733.2  6.031e-13
5734.6  5.993e-13
5736.0  5.844e-13
5737.4  5.793e-13
5738.8  5.789e-13
5740.2  5.877e-13
5741.6  6.001e-13
5743.0  6.058e-13
5744.4  6.081e-13
5745.8  6.074e-13
5747.2  6.102e-13
5748.6  6.219e-13
5750.0  6.321e-13
5751.4  6.346e-13
5752.8  6.26e-13
5754.2  6.283e-13
5755.6  6.392e-13
5757.0  6.329e-13
5758.4  6.172e-13
5759.8  5.863e-13
5761.2  5.522e-13
5762.6  5.461e-13
5764.0  5.569e-13
5765.4  5.648e-13
5766.8  5.62e-13
5768.2  5.659e-13
5769.6  5.816e-13
5771.0  5.868e-13
5772.4  5.798e-13
5773.8  5.83e-13
5775.2  5.804e-13
5776.6  5.817e-13
5778.0  5.856e-13
5779.4  5.731e-13
5780.8  5.569e-13
5782.2  5.529e-13
5783.6  5.494e-13
5785.0  5.6e-13
5786.4  5.756e-13
5787.8  5.955e-13
5789.2  5.913e-13
5790.6  5.942e-13
5792.0  6.113e-13
5793.4  6.256e-13
5794.8  6.405e-13
5796.2  6.371e-13
5797.6  6.412e-13
5799.0  6.643e-13
5800.4  6.765e-13
5801.8  6.896e-13
5803.2  6.902e-13
5804.6  6.854e-13
5806.0  6.838e-13
5807.4  6.825e-13
5808.8  6.659e-13
5810.2  6.426e-13
5811.6  6.16e-13
5813.0  5.905e-13
5814.4  5.742e-13
5815.8  5.713e-13
5817.2  5.668e-13
5818.6  5.618e-13
5820.0  5.698e-13
5821.4  5.778e-13
5822.8  5.778e-13
5824.2  5.815e-13
5825.6  5.906e-13
5827.0  5.902e-13
5828.4  5.942e-13
5829.8  6.109e-13
5831.2  6.206e-13
5832.6  6.211e-13
5834.0  6.148e-13
5835.4  6.122e-13
5836.8  6.093e-13
5838.2  6.074e-13
5839.6  6.243e-13
5841.0  6.297e-13
5842.4  6.255e-13
5843.8  6.078e-13
5845.2  5.894e-13
5846.6  5.503e-13
5848.0  5.184e-13
5849.4  4.996e-13
5850.8  4.875e-13
5852.2  4.965e-13
5853.6  4.917e-13
5855.0  4.855e-13
5856.4  4.867e-13
5857.8  4.928e-13
5859.2  4.916e-13
5860.6  4.786e-13
5862.0  4.601e-13
5863.4  4.56e-13
5864.8  4.617e-13
5866.2  4.667e-13
5867.6  4.774e-13
5869.0  4.86e-13
5870.4  4.799e-13
5871.8  4.567e-13
5873.2  4.544e-13
5874.6  4.462e-13
5876.0  4.327e-13
5877.4  4.31e-13
5878.8  4.315e-13
5880.2  4.337e-13
5881.6  4.412e-13
5883.0  4.48e-13
5884.4  4.494e-13
5885.8  4.381e-13
5887.2  4.023e-13
5888.6  3.716e-13
5890.0  3.834e-13
5891.4  4.095e-13
5892.8  4.036e-13
5894.2  3.843e-13
5895.6  3.812e-13
5897.0  3.92e-13
5898.4  3.913e-13
5899.8  4.078e-13
5901.2  4.11e-13
5902.6  4.078e-13
5904.0  4.016e-13
5905.4  3.958e-13
5906.8  3.995e-13
5908.2  3.983e-13
5909.6  3.961e-13
5911.0  3.935e-13
5912.4  3.91e-13
5913.8  3.982e-13
5915.2  4.034e-13
5916.6  4.056e-13
5918.0  4.009e-13
5919.4  3.967e-13
5920.8  3.957e-13
5922.2  3.987e-13
5923.6  4.017e-13
5925.0  4.032e-13
5926.4  4.066e-13
5927.8  4.158e-13
5929.2  4.277e-13
5930.6  4.307e-13
5932.0  4.292e-13
5933.4  4.355e-13
5934.8  4.501e-13
5936.2  4.658e-13
5937.6  4.586e-13
5939.0  4.43e-13
5940.4  4.445e-13
5941.8  4.531e-13
5943.2  4.715e-13
5944.6  4.778e-13
5946.0  4.639e-13
5947.4  4.529e-13
5948.8  4.434e-13
5950.2  4.395e-13
5951.6  4.415e-13
5953.0  4.387e-13
5954.4  4.297e-13
5955.8  4.278e-13
5957.2  4.386e-13
5958.6  4.529e-13
5960.0  4.587e-13
5961.4  4.649e-13
5962.8  4.643e-13
5964.2  4.613e-13
5965.6  4.622e-13
5967.0  4.689e-13
5968.4  4.865e-13
5969.8  4.94e-13
5971.2  4.937e-13
5972.6  4.887e-13
5974.0  4.841e-13
5975.4  4.82e-13
5976.8  4.631e-13
5978.2  4.615e-13
5979.6  4.721e-13
5981.0  4.822e-13
5982.4  4.893e-13
5983.8  4.795e-13
5985.2  5.005e-13
5986.6  5.071e-13
5988.0  5.115e-13
5989.4  5.293e-13
5990.8  5.477e-13
5992.2  5.673e-13
5993.6  5.636e-13
5995.0  5.614e-13
5996.4  5.593e-13
5997.8  5.474e-13
5999.2  5.346e-13
6000.6  5.256e-13
6002.0  5.277e-13
6003.4  5.287e-13
6004.8  5.167e-13
6006.2  5.02e-13
6007.6  5.007e-13
6009.0  5.161e-13
6010.4  5.28e-13
6011.8  5.324e-13
6013.2  5.419e-13
6014.6  5.478e-13
6016.0  5.498e-13
6017.4  5.586e-13
6018.8  5.655e-13
6020.2  5.715e-13
6021.6  5.828e-13
6023.0  5.868e-13
6024.4  5.852e-13
6025.8  5.866e-13
6027.2  5.862e-13
6028.6  5.831e-13
6030.0  5.853e-13
6031.4  5.94e-13
6032.8  5.926e-13
6034.2  5.973e-13
6035.6  5.837e-13
6037.0  5.881e-13
6038.4  6.089e-13
6039.8  6.214e-13
6041.2  6.374e-13
6042.6  6.43e-13
6044.0  6.565e-13
6045.4  6.642e-13
6046.8  6.631e-13
6048.2  6.658e-13
6049.6  6.454e-13
6051.0  6.463e-13
6052.4  6.449e-13
6053.8  6.369e-13
6055.2  6.254e-13
6056.6  6.158e-13
6058.0  6.249e-13
6059.4  6.42e-13
6060.8  6.415e-13
6062.2  6.256e-13
6063.6  6.064e-13
6065.0  6.08e-13
6066.4  6.358e-13
6067.8  6.69e-13
6069.2  6.92e-13
6070.6  7.001e-13
6072.0  6.924e-13
6073.4  6.846e-13
6074.8  6.848e-13
6076.2  6.799e-13
6077.6  6.666e-13
6079.0  6.537e-13
6080.4  6.509e-13
6081.8  6.61e-13
6083.2  6.769e-13
6084.6  6.889e-13
6086.0  7.013e-13
6087.4  7.048e-13
6088.8  6.842e-13
6090.2  6.573e-13
6091.6  6.669e-13
6093.0  6.904e-13
6094.4  7.05e-13
6095.8  7.114e-13
6097.2  7.189e-13
6098.6  7.222e-13
6100.0  7.002e-13
6101.4  6.73e-13
6102.8  6.646e-13
6104.2  6.727e-13
6105.6  6.836e-13
6107.0  6.879e-13
6108.4  6.949e-13
6109.8  7.015e-13
6111.2  7.077e-13
6112.6  7.307e-13
6114.0  7.51e-13
6115.4  7.424e-13
6116.8  7.241e-13
6118.2  7.102e-13
6119.6  6.749e-13
6121.0  6.549e-13
6122.4  6.759e-13
6123.8  7.063e-13
6125.2  7.143e-13
6126.6  7.089e-13
6128.0  7.115e-13
6129.4  7.332e-13
6130.8  7.555e-13
6132.2  7.457e-13
6133.6  7.082e-13
6135.0  6.763e-13
6136.4  6.705e-13
6137.8  6.933e-13
6139.2  7.429e-13
6140.6  7.63e-13
6142.0  7.47e-13
6143.4  7.442e-13
6144.8  7.541e-13
6146.2  7.745e-13
6147.6  7.48e-13
6149.0  6.811e-13
6150.4  6.478e-13
6151.8  6.699e-13
6153.2  6.929e-13
6154.6  6.751e-13
6156.0  6.472e-13
6157.4  6.097e-13
6158.8  5.484e-13
6160.2  4.912e-13
6161.6  4.453e-13
6163.0  4.115e-13
6164.4  4.107e-13
6165.8  4.317e-13
6167.2  4.367e-13
6168.6  4.304e-13
6170.0  4.272e-13
6171.4  4.328e-13
6172.8  4.419e-13
6174.2  4.409e-13
6175.6  4.272e-13
6177.0  4.273e-13
6178.4  4.42e-13
6179.8  4.616e-13
6181.2  4.694e-13
6182.6  4.494e-13
6184.0  4.401e-13
6185.4  4.257e-13
6186.8  4.048e-13
6188.2  3.859e-13
6189.6  3.759e-13
6191.0  3.709e-13
6192.4  3.566e-13
6193.8  3.573e-13
6195.2  3.777e-13
6196.6  4.055e-13
6198.0  4.215e-13
6199.4  4.169e-13
6200.8  4.131e-13
6202.2  4.206e-13
6203.6  4.314e-13
6205.0  4.326e-13
6206.4  4.304e-13
6207.8  4.407e-13
6209.2  4.528e-13
6210.6  4.47e-13
6212.0  4.313e-13
6213.4  4.169e-13
6214.8  3.956e-13
6216.2  3.719e-13
6217.6  3.639e-13
6219.0  3.651e-13
6220.4  3.661e-13
6221.8  3.727e-13
6223.2  3.607e-13
6224.6  3.482e-13
6226.0  3.431e-13
6227.4  3.431e-13
6228.8  3.459e-13
6230.2  3.456e-13
6231.6  3.471e-13
6233.0  3.488e-13
6234.4  3.56e-13
6235.8  3.696e-13
6237.2  3.781e-13
6238.6  3.722e-13
6240.0  3.6e-13
6241.4  3.587e-13
6242.8  3.669e-13
6244.2  3.716e-13
6245.6  3.759e-13
6247.0  3.988e-13
6248.4  4.263e-13
6249.8  4.33e-13
6251.2  4.281e-13
6252.6  4.261e-13
6254.0  4.308e-13
6255.4  4.424e-13
6256.8  4.309e-13
6258.2  4.128e-13
6259.6  4.106e-13
6261.0  4.18e-13
6262.4  4.363e-13
6263.8  4.579e-13
6265.2  4.694e-13
6266.6  4.739e-13
6268.0  4.695e-13
6269.4  4.498e-13
6270.8  4.432e-13
6272.2  4.605e-13
6273.6  4.703e-13
6275.0  4.588e-13
6276.4  4.559e-13
6277.8  4.522e-13
6279.2  4.448e-13
6280.6  4.375e-13
6282.0  4.371e-13
6283.4  4.509e-13
6284.8  4.705e-13
6286.2  4.819e-13
6287.6  5.061e-13
6289.0  5.305e-13
6290.4  5.329e-13
6291.8  5.225e-13
6293.2  5.088e-13
6294.6  4.928e-13
6296.0  4.876e-13
6297.4  4.955e-13
6298.8  5.105e-13
6300.2  5.252e-13
6301.6  5.261e-13
6303.0  5.311e-13
6304.4  5.378e-13
6305.8  5.402e-13
6307.2  5.489e-13
6308.6  5.64e-13
6310.0  5.793e-13
6311.4  5.876e-13
6312.8  5.921e-13
6314.2  6.004e-13
6315.6  6.091e-13
6317.0  6.117e-13
6318.4  6.085e-13
6319.8  6.075e-13
6321.2  6.078e-13
6322.6  6.011e-13
6324.0  5.968e-13
6325.4  6.053e-13
6326.8  6.268e-13
6328.2  6.56e-13
6329.6  6.67e-13
6331.0  6.53e-13
6332.4  6.518e-13
6333.8  6.638e-13
6335.2  6.465e-13
6336.6  6.281e-13
6338.0  6.332e-13
6339.4  6.563e-13
6340.8  6.921e-13
6342.2  7.201e-13
6343.6  7.014e-13
6345.0  6.574e-13
6346.4  6.522e-13
6347.8  6.759e-13
6349.2  6.942e-13
6350.6  7.043e-13
6352.0  6.997e-13
6353.4  6.856e-13
6354.8  6.643e-13
6356.2  6.456e-13
6357.6  6.368e-13
6359.0  6.236e-13
6360.4  6.164e-13
6361.8  6.175e-13
6363.2  6.204e-13
6364.6  6.286e-13
6366.0  6.431e-13
6367.4  6.688e-13
6368.8  6.932e-13
6370.2  7.003e-13
6371.6  7.049e-13
6373.0  7.185e-13
6374.4  7.262e-13
6375.8  7.244e-13
6377.2  7.236e-13
6378.6  7.078e-13
6380.0  7.016e-13
6381.4  7.177e-13
6382.8  7.258e-13
6384.2  7.134e-13
6385.6  7.125e-13
6387.0  7.164e-13
6388.4  7.164e-13
6389.8  7.175e-13
6391.2  7.17e-13
6392.6  7.115e-13
6394.0  7.072e-13
6395.4  7.319e-13
6396.8  7.713e-13
6398.2  7.775e-13
6399.6  7.738e-13
6401.0  7.686e-13
6402.4  7.752e-13
6403.8  7.931e-13
6405.2  8.059e-13
6406.6  8.091e-13
6408.0  7.926e-13
6409.4  7.89e-13
6410.8  7.913e-13
6412.2  7.633e-13
6413.6  7.37e-13
6415.0  7.355e-13
6416.4  7.371e-13
6417.8  7.284e-13
6419.2  7.115e-13
6420.6  6.967e-13
6422.0  7.037e-13
6423.4  7.294e-13
6424.8  7.458e-13
6426.2  7.537e-13
6427.6  7.556e-13
6429.0  7.451e-13
6430.4  7.255e-13
6431.8  7.311e-13
6433.2  7.484e-13
6434.6  7.549e-13
6436.0  7.616e-13
6437.4  7.797e-13
6438.8  7.818e-13
6440.2  7.905e-13
6441.6  8.19e-13
6443.0  8.432e-13
6444.4  8.349e-13
6445.8  8.067e-13
6447.2  7.725e-13
6448.6  7.419e-13
6450.0  7.173e-13
6451.4  7.161e-13
6452.8  7.432e-13
6454.2  7.721e-13
6455.6  7.826e-13
6457.0  7.79e-13
6458.4  7.882e-13
6459.8  8.095e-13
6461.2  8.169e-13
6462.6  8.103e-13
6464.0  8.197e-13
6465.4  8.399e-13
6466.8  8.453e-13
6468.2  8.393e-13
6469.6  8.309e-13
6471.0  8.157e-13
6472.4  8.085e-13
6473.8  8.065e-13
6475.2  7.976e-13
6476.6  8.047e-13
6478.0  8.037e-13
6479.4  7.72e-13
6480.8  7.393e-13
6482.2  7.227e-13
6483.6  7.132e-13
6485.0  7.125e-13
6486.4  7.233e-13
6487.8  7.41e-13
6489.2  7.412e-13
6490.6  7.332e-13
6492.0  7.364e-13
6493.4  7.309e-13
6494.8  7.08e-13
6496.2  6.877e-13
6497.6  6.82e-13
6499.0  6.885e-13
6500.4  7.183e-13
6501.8  7.565e-13
6503.2  7.714e-13
6504.6  7.668e-13
6506.0  7.671e-13
6507.4  7.647e-13
6508.8  7.642e-13
6510.2  7.675e-13
6511.6  7.697e-13
6513.0  7.749e-13
6514.4  7.647e-13
6515.8  7.476e-13
6517.2  7.403e-13
6518.6  7.368e-13
6520.0  7.451e-13
6521.4  7.75e-13
6522.8  8.022e-13
6524.2  8.054e-13
6525.6  8.002e-13
6527.0  8.124e-13
6528.4  8.366e-13
6529.8  8.434e-13
6531.2  8.327e-13
6532.6  8.259e-13
6534.0  8.36e-13
6535.4  8.447e-13
6536.8  8.515e-13
6538.2  8.616e-13
6539.6  8.78e-13
6541.0  8.843e-13
6542.4  8.642e-13
6543.8  8.339e-13
6545.2  8.128e-13
6546.6  8.034e-13
6548.0  7.834e-13
6549.4  7.678e-13
6550.8  7.665e-13
6552.2  7.72e-13
6553.6  7.608e-13
6555.0  7.473e-13
6556.4  7.488e-13
6557.8  7.638e-13
6559.2  7.768e-13
6560.6  7.457e-13
6562.0  6.755e-13
6563.4  6.425e-13
6564.8  6.962e-13
6566.2  7.573e-13
6567.6  7.773e-13
6569.0  7.769e-13
6570.4  7.668e-13
6571.8  7.526e-13
6573.2  7.396e-13
6574.6  7.468e-13
6576.0  7.707e-13
6577.4  7.726e-13
6578.8  7.498e-13
6580.2  7.397e-13
6581.6  7.563e-13
6583.0  7.716e-13
6584.4  7.851e-13
6585.8  7.992e-13
6587.2  8.004e-13
6588.6  8.024e-13
6590.0  8.14e-13
6591.4  8.036e-13
6592.8  7.527e-13
6594.2  7.243e-13
6595.6  7.241e-13
6597.0  7.291e-13
6598.4  7.306e-13
6599.8  7.539e-13
6601.2  7.754e-13
6602.6  7.804e-13
6604.0  7.704e-13
6605.4  7.548e-13
6606.8  7.517e-13
6608.2  7.487e-13
6609.6  7.439e-13
6611.0  7.561e-13
6612.4  7.708e-13
6613.8  7.799e-13
6615.2  7.835e-13
6616.6  7.683e-13
6618.0  7.451e-13
6619.4  7.335e-13
6620.8  7.342e-13
6622.2  7.371e-13
6623.6  7.206e-13
6625.0  6.963e-13
6626.4  6.904e-13
6627.8  7.008e-13
6629.2  7.196e-13
6630.6  7.288e-13
6632.0  7.186e-13
6633.4  7.023e-13
6634.8  6.932e-13
6636.2  6.875e-13
6637.6  6.853e-13
6639.0  7.056e-13
6640.4  7.324e-13
6641.8  7.413e-13
6643.2  7.215e-13
6644.6  7.048e-13
6646.0  7.037e-13
6647.4  6.999e-13
6648.8  6.72e-13
6650.2  6.296e-13
6651.6  6.091e-13
6653.0  6.132e-13
6654.4  6.223e-13
6655.8  6.182e-13
6657.2  6.207e-13
6658.6  6.264e-13
6660.0  6.228e-13
6661.4  6.225e-13
6662.8  6.233e-13
6664.2  6.3e-13
6665.6  6.433e-13
6667.0  6.466e-13
6668.4  6.55e-13
6669.8  6.803e-13
6671.2  6.975e-13
6672.6  6.796e-13
6674.0  6.628e-13
6675.4  6.571e-13
6676.8  6.402e-13
6678.2  6.26e-13
6679.6  6.025e-13
6681.0  5.746e-13
6682.4  5.785e-13
6683.8  5.938e-13
6685.2  6.005e-13
6686.6  6.005e-13
6688.0  5.959e-13
6689.4  5.925e-13
6690.8  5.887e-13
6692.2  5.844e-13
6693.6  5.859e-13
6695.0  5.91e-13
6696.4  5.924e-13
6697.8  5.944e-13
6699.2  6.125e-13
6700.6  6.289e-13
6702.0  6.423e-13
6703.4  6.498e-13
6704.8  6.549e-13
6706.2  6.556e-13
6707.6  6.548e-13
6709.0  6.501e-13
6710.4  6.389e-13
6711.8  6.164e-13
6713.2  5.752e-13
6714.6  5.286e-13
6716.0  5.024e-13
6717.4  4.869e-13
6718.8  4.894e-13
6720.2  5.1e-13
6721.6  5.21e-13
6723.0  5.29e-13
6724.4  5.429e-13
6725.8  5.506e-13
6727.2  5.469e-13
6728.6  5.54e-13
6730.0  5.652e-13
6731.4  5.596e-13
6732.8  5.565e-13
6734.2  5.62e-13
6735.6  5.7e-13
6737.0  5.814e-13
6738.4  5.883e-13
6739.8  5.846e-13
6741.2  5.839e-13
6742.6  5.976e-13
6744.0  6.051e-13
6745.4  6.001e-13
6746.8  5.847e-13
6748.2  5.607e-13
6749.6  5.507e-13
6751.0  5.549e-13
6752.4  5.601e-13
6753.8  5.67e-13
6755.2  5.813e-13
6756.6  5.951e-13
6758.0  6e-13
6759.4  6.03e-13
6760.8  6.053e-13
6762.2  6.173e-13
6763.6  6.426e-13
6765.0  6.649e-13
6766.4  6.663e-13
6767.8  6.562e-13
6769.2  6.489e-13
6770.6  6.422e-13
6772.0  6.555e-13
6773.4  6.751e-13
6774.8  6.793e-13
6776.2  6.835e-13
6777.6  6.942e-13
6779.0  6.925e-13
6780.4  6.66e-13
6781.8  6.204e-13
6783.2  5.791e-13
6784.6  5.666e-13
6786.0  5.809e-13
6787.4  5.962e-13
6788.8  5.975e-13
6790.2  5.998e-13
6791.6  6.123e-13
6793.0  6.128e-13
6794.4  6.077e-13
6795.8  6.203e-13
6797.2  6.366e-13
6798.6  6.461e-13
6800.0  6.556e-13
6801.4  6.69e-13
6802.8  6.796e-13
6804.2  6.802e-13
6805.6  6.655e-13
6807.0  6.533e-13
6808.4  6.611e-13
6809.8  6.77e-13
6811.2  6.882e-13
6812.6  6.925e-13
6814.0  6.699e-13
6815.4  6.506e-13
6816.8  6.477e-13
6818.2  6.559e-13
6819.6  6.708e-13
6821.0  6.834e-13
6822.4  6.917e-13
6823.8  6.997e-13
6825.2  7.069e-13
6826.6  7.13e-13
6828.0  7.147e-13
6829.4  7.049e-13
6830.8  6.904e-13
6832.2  6.979e-13
6833.6  7.215e-13
6835.0  7.423e-13
6836.4  7.65e-13
6837.8  7.73e-13
6839.2  7.555e-13
6840.6  7.375e-13
6842.0  7.413e-13
6843.4  7.682e-13
6844.8  7.929e-13
6846.2  7.939e-13
6847.6  7.806e-13
6849.0  7.526e-13
6850.4  7.217e-13
6851.8  7.088e-13
6853.2  6.899e-13
6854.6  6.834e-13
6856.0  7.019e-13
6857.4  7.275e-13
6858.8  7.391e-13
6860.2  7.303e-13
6861.6  7.179e-13
6863.0  7.262e-13
6864.4  7.324e-13
6865.8  7.321e-13
6867.2  6.988e-13
6868.6  6.203e-13
6870.0  5.742e-13
6871.4  5.678e-13
6872.8  5.815e-13
6874.2  6.106e-13
6875.6  6.451e-13
6877.0  6.746e-13
6878.4  7.016e-13
6879.8  7.28e-13
6881.2  7.459e-13
6882.6  7.562e-13
6884.0  7.534e-13
6885.4  7.329e-13
6886.8  7.116e-13
6888.2  7.066e-13
6889.6  7.171e-13
6891.0  7.275e-13
6892.4  7.287e-13
6893.8  7.266e-13
6895.2  7.392e-13
6896.6  7.64e-13
6898.0  7.811e-13
6899.4  7.854e-13
6900.8  7.891e-13
6902.2  8.057e-13
6903.6  8.253e-13
6905.0  8.319e-13
6906.4  8.306e-13
6907.8  8.564e-13
6909.2  8.526e-13
6910.6  8.524e-13
6912.0  8.748e-13
6913.4  8.82e-13
6914.8  8.771e-13
6916.2  8.738e-13
6917.6  8.738e-13
6919.0  8.641e-13
6920.4  8.483e-13
6921.8  8.371e-13
6923.2  8.227e-13
6924.6  8.115e-13
6926.0  8.359e-13
6927.4  8.825e-13
6928.8  8.982e-13
6930.2  8.793e-13
6931.6  8.78e-13
6933.0  9.017e-13
6934.4  9.204e-13
6935.8  9.2e-13
6937.2  9.054e-13
6938.6  8.995e-13
6940.0  9.112e-13
6941.4  9.24e-13
6942.8  9.26e-13
6944.2  9.232e-13
6945.6  9.237e-13
6947.0  9.3e-13
6948.4  9.491e-13
6949.8  9.778e-13
6951.2  9.823e-13
6952.6  9.509e-13
6954.0  9.379e-13
6955.4  9.568e-13
6956.8  9.896e-13
6958.2  1.012e-12
6959.6  1.017e-12
6961.0  1.013e-12
6962.4  1.034e-12
6963.8  1.061e-12
6965.2  1.045e-12
6966.6  1.055e-12
6968.0  1.069e-12
6969.4  1.073e-12
6970.8  1.074e-12
6972.2  1.08e-12
6973.6  1.088e-12
6975.0  1.085e-12
6976.4  1.059e-12
6977.8  1.021e-12
6979.2  9.955e-13
6980.6  1.012e-12
6982.0  1.054e-12
6983.4  1.078e-12
6984.8  1.086e-12
6986.2  1.097e-12
6987.6  1.084e-12
6989.0  1.037e-12
6990.4  1.008e-12
6991.8  1.032e-12
6993.2  1.072e-12
6994.6  1.085e-12
6996.0  1.069e-12
6997.4  1.051e-12
6998.8  1.049e-12
7000.2  1.051e-12
7001.6  1.06e-12
7003.0  1.075e-12
7004.4  1.082e-12
7005.8  1.076e-12
7007.2  1.077e-12
7008.6  1.087e-12
7010.0  1.106e-12
7011.4  1.121e-12
7012.8  1.117e-12
7014.2  1.088e-12
7015.6  1.048e-12
7017.0  1.037e-12
7018.4  1.08e-12
7019.8  1.115e-12
7021.2  1.137e-12
7022.6  1.129e-12
7024.0  1.103e-12
7025.4  1.105e-12
7026.8  1.095e-12
7028.2  1.085e-12
7029.6  1.108e-12
7031.0  1.141e-12
7032.4  1.125e-12
7033.8  1.113e-12
7035.2  1.141e-12
7036.6  1.153e-12
7038.0  1.12e-12
7039.4  1.093e-12
7040.8  1.107e-12
7042.2  1.129e-12
7043.6  1.136e-12
7045.0  1.142e-12
7046.4  1.156e-12
7047.8  1.175e-12
7049.2  1.184e-12
7050.6  1.151e-12
7052.0  1.078e-12
7053.4  9.489e-13
7054.8  7.933e-13
7056.2  7.497e-13
7057.6  7.729e-13
7059.0  7.634e-13
7060.4  7.119e-13
7061.8  7.06e-13
7063.2  6.995e-13
7064.6  7.004e-13
7066.0  7.114e-13
7067.4  7.31e-13
7068.8  7.641e-13
7070.2  7.794e-13
7071.6  8.026e-13
7073.0  8.219e-13
7074.4  8.227e-13
7075.8  8.351e-13
7077.2  8.49e-13
7078.6  8.539e-13
7080.0  8.538e-13
7081.4  8.563e-13
7082.8  8.605e-13
7084.2  8.257e-13
7085.6  7.524e-13
7087.0  6.802e-13
7088.4  6.305e-13
7089.8  6.133e-13
7091.2  6.122e-13
7092.6  6.057e-13
7094.0  5.958e-13
7095.4  5.91e-13
7096.8  6.002e-13
7098.2  6.141e-13
7099.6  6.204e-13
7101.0  6.294e-13
7102.4  6.411e-13
7103.8  6.567e-13
7105.2  6.799e-13
7106.6  7.085e-13
7108.0  7.264e-13
7109.4  7.146e-13
7110.8  7.021e-13
7112.2  7.123e-13
7113.6  7.057e-13
7115.0  7.191e-13
7116.4  7.66e-13
7117.8  8.082e-13
7119.2  8.105e-13
7120.6  8.036e-13
7122.0  7.913e-13
7123.4  7.079e-13
7124.8  5.913e-13
7126.2  5.399e-13
7127.6  5.388e-13
7129.0  5.209e-13
7130.4  5.136e-13
7131.8  5.266e-13
7133.2  5.313e-13
7134.6  5.326e-13
7136.0  5.226e-13
7137.4  5.182e-13
7138.8  5.333e-13
7140.2  5.523e-13
7141.6  5.703e-13
7143.0  5.866e-13
7144.4  6.025e-13
7145.8  6.176e-13
7147.2  6.268e-13
7148.6  6.311e-13
7150.0  6.312e-13
7151.4  6.439e-13
7152.8  6.669e-13
7154.2  6.685e-13
7155.6  6.71e-13
7157.0  6.639e-13
7158.4  6.333e-13
7159.8  6.248e-13
7161.2  6.388e-13
7162.6  6.334e-13
7164.0  6.294e-13
7165.4  6.462e-13
7166.8  6.492e-13
7168.2  6.766e-13
7169.6  6.742e-13
7171.0  6.561e-13
7172.4  6.559e-13
7173.8  6.668e-13
7175.2  6.926e-13
7176.6  6.97e-13
7178.0  6.935e-13
7179.4  6.871e-13
7180.8  6.753e-13
7182.2  7.048e-13
7183.6  7.156e-13
7185.0  6.796e-13
7186.4  6.456e-13
7187.8  6.619e-13
7189.2  7.171e-13
7190.6  7.356e-13
7192.0  7.286e-13
7193.4  7.365e-13
7194.8  7.29e-13
7196.2  6.933e-13
7197.6  6.753e-13
7199.0  6.796e-13
7200.4  6.765e-13
7201.8  6.767e-13
7203.2  6.697e-13
7204.6  6.477e-13
7206.0  6.325e-13
7207.4  6.518e-13
7208.8  6.801e-13
7210.2  7.085e-13
7211.6  7.341e-13
7213.0  7.615e-13
7214.4  7.82e-13
7215.8  7.7e-13
7217.2  7.888e-13
7218.6  8.058e-13
7220.0  8.051e-13
7221.4  8.036e-13
7222.8  8.138e-13
7224.2  8.265e-13
7225.6  8.343e-13
7227.0  8.317e-13
7228.4  8.276e-13
7229.8  8.436e-13
7231.2  8.467e-13
7232.6  8.202e-13
7234.0  8.062e-13
7235.4  8.2e-13
7236.8  8.435e-13
7238.2  8.655e-13
7239.6  8.442e-13
7241.0  8.347e-13
7242.4  8.447e-13
7243.8  8.418e-13
7245.2  8.632e-13
7246.6  9.215e-13
7248.0  9.627e-13
7249.4  9.443e-13
7250.8  8.986e-13
7252.2  8.815e-13
7253.6  9.038e-13
7255.0  9.422e-13
7256.4  9.702e-13
7257.8  9.727e-13
7259.2  9.647e-13
7260.6  9.515e-13
7262.0  9.601e-13
7263.4  9.839e-13
7264.8  9.685e-13
7266.2  1.003e-12
7267.6  1.028e-12
7269.0  1e-12
7270.4  9.663e-13
7271.8  9.514e-13
7273.2  9.367e-13
7274.6  9.54e-13
7276.0  9.73e-13
7277.4  9.792e-13
7278.8  9.975e-13
7280.2  1.008e-12
7281.6  1.03e-12
7283.0  1.063e-12
7284.4  1.081e-12
7285.8  1.066e-12
7287.2  1.043e-12
7288.6  1.027e-12
7290.0  9.85e-13
7291.4  9.621e-13
7292.8  1e-12
7294.2  1.065e-12
7295.6  1.121e-12
7297.0  1.137e-12
7298.4  1.114e-12
7299.8  1.097e-12
7301.2  1.097e-12
7302.6  1.078e-12
7304.0  1.055e-12
7305.4  1.071e-12
7306.8  1.101e-12
7308.2  1.116e-12
7309.6  1.114e-12
7311.0  1.11e-12
7312.4  1.109e-12
7313.8  1.111e-12
7315.2  1.111e-12
7316.6  1.096e-12
7318.0  1.1e-12
7319.4  1.131e-12
7320.8  1.15e-12
7322.2  1.165e-12
7323.6  1.153e-12
7325.0  1.138e-12
7326.4  1.148e-12
7327.8  1.168e-12
7329.2  1.151e-12
7330.6  1.157e-12
7332.0  1.166e-12
7333.4  1.163e-12
7334.8  1.173e-12
7336.2  1.203e-12
7337.6  1.217e-12
7339.0  1.242e-12
7340.4  1.262e-12
7341.8  1.257e-12
7343.2  1.223e-12
7344.6  1.19e-12
7346.0  1.181e-12
7347.4  1.203e-12
7348.8  1.226e-12
7350.2  1.211e-12
7351.6  1.183e-12
7353.0  1.189e-12
7354.4  1.204e-12
7355.8  1.177e-12
7357.2  1.134e-12
7358.6  1.149e-12
7360.0  1.209e-12
7361.4  1.235e-12
7362.8  1.202e-12
7364.2  1.155e-12
7365.6  1.15e-12
7367.0  1.179e-12
7368.4  1.193e-12
7369.8  1.212e-12
7371.2  1.238e-12
7372.6  1.258e-12
7374.0  1.257e-12
7375.4  1.244e-12
7376.8  1.241e-12
7378.2  1.248e-12
7379.6  1.256e-12
7381.0  1.267e-12
7382.4  1.27e-12
7383.8  1.243e-12
7385.2  1.219e-12
7386.6  1.234e-12
7388.0  1.245e-12
7389.4  1.216e-12
7390.8  1.187e-12
7392.2  1.186e-12
7393.6  1.204e-12
7395.0  1.209e-12
7396.4  1.204e-12
7397.8  1.215e-12
7399.2  1.23e-12
7400.6  1.232e-12
7402.0  1.232e-12
7403.4  1.249e-12
7404.8  1.273e-12
7406.2  1.279e-12
7407.6  1.269e-12
7409.0  1.252e-12
7410.4  1.243e-12
7411.8  1.238e-12
7413.2  1.223e-12
7414.6  1.223e-12
7416.0  1.228e-12
7417.4  1.211e-12
7418.8  1.19e-12
7420.2  1.206e-12
7421.6  1.218e-12
7423.0  1.198e-12
7424.4  1.179e-12
7425.8  1.192e-12
7427.2  1.217e-12
