# Extracted from file: jc_108.fits
#SIMPLETruefile does conform to FITS standard
#BITPIX16number of bits per data pixel
#NAXIS0number of data axes
#EXTENDTrueFITS dataset may contain extensions
#COMMENT  FITS (Flexible Image Transport System) format defined in Astronomy and
#COMMENT  Astrophysics Supplement Series v44/p363, v44/p371, v73/p359, v73/p365.
#COMMENT  Contact the NASA Science Office of Standards and Technology for the
#COMMENT  FITS Definition document #100 and other FITS information.
#ORIGINSTScI-STSDAS/TABLESTables version 1999-03-22
#FILENAMEjc_108.fitsname of file
#DESCRIP= 'Jacobi-Christenson atlas'
#DBTABLE= 'CRGRIDS'
#OBSMODE= ' '
#COMMENT  = 'The Jocobi-Christenson atlas has been extracted from'
#COMMENT  = 'the ATLAS library established at STScI by K.Horne.'
#HISTROY= 'The SDAS tables were generated from the ASCII lists in'
#HISTORY  = 'the ATLAS library. Each table was generated separatly'
#HISTORY  = 'and is in agreement with CDBS Data Design, dated'
#HISTORY  = 'February 28, 1988.'
#TARGETID= ' '
#  
#Columns WAVELENGTH FLUX
#Units  Angstroms FLAM
3510.0  2.946e-13
3511.4  2.955e-13
3512.8  3.031e-13
3514.2  2.837e-13
3515.6  3.119e-13
3517.0  3.163e-13
3518.4  3.388e-13
3519.8  3.718e-13
3521.2  3.27e-13
3522.6  2.715e-13
3524.0  3.144e-13
3525.4  3.595e-13
3526.8  3.415e-13
3528.2  2.97e-13
3529.6  2.779e-13
3531.0  2.668e-13
3532.4  2.64e-13
3533.8  2.698e-13
3535.2  2.748e-13
3536.6  2.844e-13
3538.0  3.085e-13
3539.4  3.31e-13
3540.8  3.199e-13
3542.2  3.151e-13
3543.6  3.507e-13
3545.0  4.029e-13
3546.4  4.123e-13
3547.8  3.402e-13
3549.2  2.949e-13
3550.6  3.315e-13
3552.0  3.582e-13
3553.4  3.658e-13
3554.8  3.665e-13
3556.2  3.354e-13
3557.6  2.949e-13
3559.0  3.136e-13
3560.4  3.216e-13
3561.8  2.767e-13
3563.2  2.607e-13
3564.6  3.001e-13
3566.0  3.072e-13
3567.4  2.952e-13
3568.8  3.131e-13
3570.2  3.36e-13
3571.6  3.315e-13
3573.0  3.144e-13
3574.4  2.903e-13
3575.8  3.017e-13
3577.2  3.123e-13
3578.6  3.077e-13
3580.0  3.251e-13
3581.4  3.482e-13
3582.8  3.627e-13
3584.2  3.633e-13
3585.6  3.263e-13
3587.0  3.335e-13
3588.4  3.415e-13
3589.8  3.285e-13
3591.2  3.409e-13
3592.6  3.386e-13
3594.0  2.961e-13
3595.4  2.562e-13
3596.8  2.932e-13
3598.2  3.513e-13
3599.6  3.513e-13
3601.0  3.475e-13
3602.4  3.721e-13
3603.8  3.622e-13
3605.2  3.593e-13
3606.6  3.685e-13
3608.0  3.225e-13
3609.4  2.916e-13
3610.8  2.867e-13
3612.2  3.008e-13
3613.6  3.013e-13
3615.0  2.748e-13
3616.4  2.747e-13
3617.8  2.869e-13
3619.2  2.872e-13
3620.6  3.102e-13
3622.0  3.26e-13
3623.4  3.287e-13
3624.8  3.675e-13
3626.2  3.872e-13
3627.6  3.586e-13
3629.0  3.145e-13
3630.4  3.009e-13
3631.8  3.147e-13
3633.2  3.22e-13
3634.6  3.107e-13
3636.0  2.77e-13
3637.4  3.249e-13
3638.8  3.511e-13
3640.2  3.395e-13
3641.6  3.289e-13
3643.0  3.149e-13
3644.4  3.097e-13
3645.8  3.302e-13
3647.2  3.448e-13
3648.6  3.518e-13
3650.0  3.521e-13
3651.4  3.48e-13
3652.8  3.726e-13
3654.2  3.936e-13
3655.6  3.634e-13
3657.0  3.509e-13
3658.4  3.771e-13
3659.8  3.824e-13
3661.2  3.305e-13
3662.6  3.426e-13
3664.0  3.422e-13
3665.4  3.567e-13
3666.8  3.824e-13
3668.2  3.725e-13
3669.6  3.4e-13
3671.0  3.305e-13
3672.4  3.766e-13
3673.8  4.088e-13
3675.2  4.133e-13
3676.6  4.067e-13
3678.0  3.926e-13
3679.4  4.073e-13
3680.8  4.152e-13
3682.2  4.107e-13
3683.6  3.91e-13
3685.0  3.627e-13
3686.4  3.864e-13
3687.8  4.513e-13
3689.2  4.556e-13
3690.6  4.335e-13
3692.0  4.762e-13
3693.4  5.428e-13
3694.8  5.386e-13
3696.2  4.538e-13
3697.6  4.127e-13
3699.0  4.541e-13
3700.4  5.134e-13
3701.8  5.318e-13
3703.2  4.853e-13
3704.6  4.584e-13
3706.0  4.813e-13
3707.4  4.979e-13
3708.8  4.805e-13
3710.2  4.463e-13
3711.6  4.188e-13
3713.0  4.777e-13
3714.4  5.738e-13
3715.8  6.328e-13
3717.2  6.623e-13
3718.6  6.391e-13
3720.0  5.771e-13
3721.4  4.938e-13
3722.8  4.925e-13
3724.2  5.716e-13
3725.6  6.165e-13
3727.0  6.321e-13
3728.4  6.577e-13
3729.8  6.482e-13
3731.2  5.732e-13
3732.6  4.618e-13
3734.0  4.202e-13
3735.4  4.549e-13
3736.8  5.252e-13
3738.2  6.304e-13
3739.6  6.605e-13
3741.0  6.484e-13
3742.4  6.56e-13
3743.8  6.419e-13
3745.2  6.049e-13
3746.6  5.025e-13
3748.0  4.217e-13
3749.4  4.292e-13
3750.8  5.148e-13
3752.2  6.006e-13
3753.6  6.488e-13
3755.0  7.121e-13
3756.4  7.334e-13
3757.8  6.878e-13
3759.2  6.715e-13
3760.6  6.939e-13
3762.0  7.078e-13
3763.4  7.364e-13
3764.8  7.212e-13
3766.2  6.491e-13
3767.6  6.034e-13
3769.0  5.673e-13
3770.4  5.517e-13
3771.8  5.92e-13
3773.2  6.515e-13
3774.6  7.066e-13
3776.0  7.506e-13
3777.4  7.959e-13
3778.8  8.689e-13
3780.2  9.239e-13
3781.6  9.479e-13
3783.0  9.378e-13
3784.4  9.067e-13
3785.8  8.533e-13
3787.2  8.001e-13
3788.6  7.908e-13
3790.0  8.012e-13
3791.4  7.759e-13
3792.8  7.187e-13
3794.2  6.415e-13
3795.6  5.663e-13
3797.0  5.31e-13
3798.4  5.386e-13
3799.8  6.248e-13
3801.2  7.449e-13
3802.6  8.121e-13
3804.0  8.204e-13
3805.4  8.214e-13
3806.8  8.555e-13
3808.2  9.366e-13
3809.6  1.02e-12
3811.0  9.783e-13
3812.4  8.346e-13
3813.8  7.752e-13
3815.2  8.485e-13
3816.6  9.404e-13
3818.0  9.621e-13
3819.4  9.337e-13
3820.8  9.251e-13
3822.2  9.158e-13
3823.6  8.958e-13
3825.0  8.44e-13
3826.4  7.627e-13
3827.8  7.368e-13
3829.2  7.302e-13
3830.6  6.852e-13
3832.0  5.924e-13
3833.4  5.102e-13
3834.8  4.8e-13
3836.2  5.205e-13
3837.6  6.024e-13
3839.0  6.645e-13
3840.4  7.648e-13
3841.8  8.59e-13
3843.2  8.785e-13
3844.6  8.863e-13
3846.0  9.158e-13
3847.4  9.307e-13
3848.8  9.094e-13
3850.2  9.231e-13
3851.6  9.607e-13
3853.0  9.669e-13
3854.4  9.773e-13
3855.8  9.672e-13
3857.2  9.543e-13
3858.6  9.778e-13
3860.0  1.022e-12
3861.4  1.043e-12
3862.8  1.034e-12
3864.2  1.05e-12
3865.6  1.065e-12
3867.0  1.043e-12
3868.4  1.054e-12
3869.8  1.068e-12
3871.2  1.01e-12
3872.6  9.572e-13
3874.0  9.523e-13
3875.4  9.493e-13
3876.8  9.248e-13
3878.2  8.937e-13
3879.6  8.655e-13
3881.0  8.214e-13
3882.4  7.764e-13
3883.8  7.331e-13
3885.2  6.62e-13
3886.6  5.776e-13
3888.0  5.369e-13
3889.4  5.818e-13
3890.8  7.014e-13
3892.2  8.147e-13
3893.6  8.531e-13
3895.0  8.362e-13
3896.4  8.132e-13
3897.8  8.489e-13
3899.2  9.116e-13
3900.6  9.359e-13
3902.0  9.372e-13
3903.4  9.08e-13
3904.8  8.777e-13
3906.2  9.021e-13
3907.6  9.84e-13
3909.0  1.041e-12
3910.4  1.026e-12
3911.8  1.017e-12
3913.2  9.655e-13
3914.6  9.47e-13
3916.0  9.458e-13
3917.4  9.347e-13
3918.8  9.618e-13
3920.2  9.464e-13
3921.6  9.095e-13
3923.0  9.057e-13
3924.4  8.629e-13
3925.8  7.753e-13
3927.2  6.972e-13
3928.6  5.792e-13
3930.0  4.208e-13
3931.4  2.906e-13
3932.8  2.384e-13
3934.2  2.879e-13
3935.6  4.143e-13
3937.0  5.585e-13
3938.4  6.941e-13
3939.8  7.729e-13
3941.2  8.315e-13
3942.6  8.601e-13
3944.0  8.663e-13
3945.4  8.857e-13
3946.8  8.882e-13
3948.2  8.943e-13
3949.6  9.147e-13
3951.0  9.312e-13
3952.4  9.271e-13
3953.8  9.392e-13
3955.2  9.562e-13
3956.6  9.167e-13
3958.0  9.043e-13
3959.4  8.688e-13
3960.8  7.774e-13
3962.2  6.738e-13
3963.6  5.671e-13
3965.0  4.245e-13
3966.4  2.917e-13
3967.8  2.399e-13
3969.2  3.008e-13
3970.6  4.347e-13
3972.0  5.558e-13
3973.4  6.598e-13
3974.8  7.558e-13
3976.2  8.251e-13
3977.6  9.044e-13
3979.0  9.522e-13
3980.4  9.371e-13
3981.8  9.326e-13
3983.2  9.689e-13
3984.6  9.868e-13
3986.0  9.79e-13
3987.4  1.007e-12
3988.8  1.036e-12
3990.2  1.054e-12
3991.6  1.084e-12
3993.0  1.089e-12
3994.4  1.033e-12
3995.8  9.967e-13
3997.2  1.013e-12
3998.6  1.035e-12
4000.0  1.051e-12
4001.4  1.054e-12
4002.8  1.028e-12
4004.2  9.685e-13
4005.6  9.989e-13
4007.0  1.07e-12
4008.4  1.081e-12
4009.8  1.054e-12
4011.2  1.048e-12
4012.6  1.054e-12
4014.0  1.077e-12
4015.4  1.105e-12
4016.8  1.113e-12
4018.2  1.105e-12
4019.6  1.097e-12
4021.0  1.082e-12
4022.4  1.025e-12
4023.8  1.046e-12
4025.2  1.062e-12
4026.6  1.037e-12
4028.0  1.034e-12
4029.4  1.025e-12
4030.8  1.005e-12
4032.2  1.011e-12
4033.6  1.048e-12
4035.0  1.066e-12
4036.4  1.084e-12
4037.8  1.094e-12
4039.2  1.104e-12
4040.6  1.051e-12
4042.0  1e-12
4043.4  9.855e-13
4044.8  1.005e-12
4046.2  1.054e-12
4047.6  1.072e-12
4049.0  1.073e-12
4050.4  1.055e-12
4051.8  1.016e-12
4053.2  1.022e-12
4054.6  1.001e-12
4056.0  9.902e-13
4057.4  1.05e-12
4058.8  1.076e-12
4060.2  1.06e-12
4061.6  1.036e-12
4063.0  1.007e-12
4064.4  1.016e-12
4065.8  1.016e-12
4067.2  1.005e-12
4068.6  1.016e-12
4070.0  1.014e-12
4071.4  1.028e-12
4072.8  1.017e-12
4074.2  9.493e-13
4075.6  9.187e-13
4077.0  9.443e-13
4078.4  9.807e-13
4079.8  1.024e-12
4081.2  1.041e-12
4082.6  1.012e-12
4084.0  9.855e-13
4085.4  9.876e-13
4086.8  1.023e-12
4088.2  1.068e-12
4089.6  1.048e-12
4091.0  9.706e-13
4092.4  9.224e-13
4093.8  8.827e-13
4095.2  8.517e-13
4096.6  7.94e-13
4098.0  7.121e-13
4099.4  6.232e-13
4100.8  5.792e-13
4102.2  6.397e-13
4103.6  7.243e-13
4105.0  7.842e-13
4106.4  8.457e-13
4107.8  9.013e-13
4109.2  9.42e-13
4110.6  9.451e-13
4112.0  9.581e-13
4113.4  1.02e-12
4114.8  1.032e-12
4116.2  1.002e-12
4117.6  9.973e-13
4119.0  1.002e-12
4120.4  9.947e-13
4121.8  9.698e-13
4123.2  9.728e-13
4124.6  9.915e-13
4126.0  9.441e-13
4127.4  9.342e-13
4128.8  9.371e-13
4130.2  9.364e-13
4131.6  9.452e-13
4133.0  9.677e-13
4134.4  1.008e-12
4135.8  1.033e-12
4137.2  1.019e-12
4138.6  1.069e-12
4140.0  1.086e-12
4141.4  1.033e-12
4142.8  1.001e-12
4144.2  1.016e-12
4145.6  1.03e-12
4147.0  1.035e-12
4148.4  1.019e-12
4149.8  1.027e-12
4151.2  1.03e-12
4152.6  1.003e-12
4154.0  9.966e-13
4155.4  9.776e-13
4156.8  9.5e-13
4158.2  9.634e-13
4159.6  9.867e-13
4161.0  9.983e-13
4162.4  1.014e-12
4163.8  1.028e-12
4165.2  1.04e-12
4166.6  1.039e-12
4168.0  1.01e-12
4169.4  9.473e-13
4170.8  8.813e-13
4172.2  8.744e-13
4173.6  9.017e-13
4175.0  9.184e-13
4176.4  9.314e-13
4177.8  9.353e-13
4179.2  9.449e-13
4180.6  9.562e-13
4182.0  9.418e-13
4183.4  9.342e-13
4184.8  9.576e-13
4186.2  9.619e-13
4187.6  9.281e-13
4189.0  9.576e-13
4190.4  1.012e-12
4191.8  1.043e-12
4193.2  1.039e-12
4194.6  1.008e-12
4196.0  9.772e-13
4197.4  9.48e-13
4198.8  9.514e-13
4200.2  9.486e-13
4201.6  9.563e-13
4203.0  9.733e-13
4204.4  9.547e-13
4205.8  9.497e-13
4207.2  9.856e-13
4208.6  1.013e-12
4210.0  1.011e-12
4211.4  1.019e-12
4212.8  9.915e-13
4214.2  9.63e-13
4215.6  9.531e-13
4217.0  9.45e-13
4218.4  9.705e-13
4219.8  1.005e-12
4221.2  1.003e-12
4222.6  9.632e-13
4224.0  9.37e-13
4225.4  9.151e-13
4226.8  8.969e-13
4228.2  9.422e-13
4229.6  9.82e-13
4231.0  9.627e-13
4232.4  9.145e-13
4233.8  9.03e-13
4235.2  9.298e-13
4236.6  9.736e-13
4238.0  9.935e-13
4239.4  9.93e-13
4240.8  9.918e-13
4242.2  1.016e-12
4243.6  1.03e-12
4245.0  9.756e-13
4246.4  9.258e-13
4247.8  9.183e-13
4249.2  9.224e-13
4250.6  9.42e-13
4252.0  9.725e-13
4253.4  9.845e-13
4254.8  9.767e-13
4256.2  9.673e-13
4257.6  9.576e-13
4259.0  9.525e-13
4260.4  9.535e-13
4261.8  9.684e-13
4263.2  1.002e-12
4264.6  1.033e-12
4266.0  1.035e-12
4267.4  9.979e-13
4268.8  9.596e-13
4270.2  9.246e-13
4271.6  8.904e-13
4273.0  8.929e-13
4274.4  9.135e-13
4275.8  9.479e-13
4277.2  9.884e-13
4278.6  9.992e-13
4280.0  1.002e-12
4281.4  9.95e-13
4282.8  9.845e-13
4284.2  9.948e-13
4285.6  9.731e-13
4287.0  9.265e-13
4288.4  8.95e-13
4289.8  8.779e-13
4291.2  8.932e-13
4292.6  9.096e-13
4294.0  9.096e-13
4295.4  9.15e-13
4296.8  8.816e-13
4298.2  8.323e-13
4299.6  8.018e-13
4301.0  7.806e-13
4302.4  8.071e-13
4303.8  8.629e-13
4305.2  8.967e-13
4306.6  8.947e-13
4308.0  8.867e-13
4309.4  8.811e-13
4310.8  8.961e-13
4312.2  9.01e-13
4313.6  8.6e-13
4315.0  8.802e-13
4316.4  9.182e-13
4317.8  9.403e-13
4319.2  9.467e-13
4320.6  9.232e-13
4322.0  9.29e-13
4323.4  9.432e-13
4324.8  9.444e-13
4326.2  9.285e-13
4327.6  9.355e-13
4329.0  9.56e-13
4330.4  9.201e-13
4331.8  8.77e-13
4333.2  8.766e-13
4334.6  8.487e-13
4336.0  7.583e-13
4337.4  6.495e-13
4338.8  5.812e-13
4340.2  5.66e-13
4341.6  5.949e-13
4343.0  6.734e-13
4344.4  7.571e-13
4345.8  8.198e-13
4347.2  8.719e-13
4348.6  8.93e-13
4350.0  8.812e-13
4351.4  8.485e-13
4352.8  8.527e-13
4354.2  9.333e-13
4355.6  9.942e-13
4357.0  9.772e-13
4358.4  9.534e-13
4359.8  9.64e-13
4361.2  9.931e-13
4362.6  1.025e-12
4364.0  1.032e-12
4365.4  1.011e-12
4366.8  9.821e-13
4368.2  9.52e-13
4369.6  9.443e-13
4371.0  9.641e-13
4372.4  9.835e-13
4373.8  9.471e-13
4375.2  9.283e-13
4376.6  9.924e-13
4378.0  1.011e-12
4379.4  1.031e-12
4380.8  1.01e-12
4382.2  9.09e-13
4383.6  8.706e-13
4385.0  8.835e-13
4386.4  9.142e-13
4387.8  9.489e-13
4389.2  9.538e-13
4390.6  9.638e-13
4392.0  9.698e-13
4393.4  9.339e-13
4394.8  8.897e-13
4396.2  8.993e-13
4397.6  9.096e-13
4399.0  9.119e-13
4400.4  9.028e-13
4401.8  9.279e-13
4403.2  9.316e-13
4404.6  9.224e-13
4406.0  9.133e-13
4407.4  9.19e-13
4408.8  9.585e-13
4410.2  9.637e-13
4411.6  9.518e-13
4413.0  9.554e-13
4414.4  8.975e-13
4415.8  8.318e-13
4417.2  8.507e-13
4418.6  9.112e-13
4420.0  9.561e-13
4421.4  9.542e-13
4422.8  9.507e-13
4424.2  9.609e-13
4425.6  9.494e-13
4427.0  9.376e-13
4428.4  9.489e-13
4429.8  9.568e-13
4431.2  9.346e-13
4432.6  8.93e-13
4434.0  8.942e-13
4435.4  9.606e-13
4436.8  1.019e-12
4438.2  1.023e-12
4439.6  9.799e-13
4441.0  9.38e-13
4442.4  8.918e-13
4443.8  8.713e-13
4445.2  9.174e-13
4446.6  9.365e-13
4448.0  9.266e-13
4449.4  9.36e-13
4450.8  9.491e-13
4452.2  9.574e-13
4453.6  9.431e-13
4455.0  9.505e-13
4456.4  9.64e-13
4457.8  9.186e-13
4459.2  9.062e-13
4460.6  9.293e-13
4462.0  9.266e-13
4463.4  9.376e-13
4464.8  9.269e-13
4466.2  8.955e-13
4467.6  8.761e-13
4469.0  8.729e-13
4470.4  9.097e-13
4471.8  9.602e-13
4473.2  9.798e-13
4474.6  9.71e-13
4476.0  9.639e-13
4477.4  9.629e-13
4478.8  9.356e-13
4480.2  9.041e-13
4481.6  9.3e-13
4483.0  9.798e-13
4484.4  1.013e-12
4485.8  9.8e-13
4487.2  9.086e-13
4488.6  9.03e-13
4490.0  9.32e-13
4491.4  9.578e-13
4492.8  9.763e-13
4494.2  9.9e-13
4495.6  1.002e-12
4497.0  1.002e-12
4498.4  9.641e-13
4499.8  9.591e-13
4501.2  1.008e-12
4502.6  1.039e-12
4504.0  9.996e-13
4505.4  9.629e-13
4506.8  9.782e-13
4508.2  1.006e-12
4509.6  1.008e-12
4511.0  1.022e-12
4512.4  9.877e-13
4513.8  9.459e-13
4515.2  9.582e-13
4516.6  9.618e-13
4518.0  9.451e-13
4519.4  9.255e-13
4520.8  9.317e-13
4522.2  9.503e-13
4523.6  9.64e-13
4525.0  9.444e-13
4526.4  9.167e-13
4527.8  9.206e-13
4529.2  9.33e-13
4530.6  9.231e-13
4532.0  8.893e-13
4533.4  8.926e-13
4534.8  9.501e-13
4536.2  9.931e-13
4537.6  1.014e-12
4539.0  9.853e-13
4540.4  9.289e-13
4541.8  9.176e-13
4543.2  9.317e-13
4544.6  9.277e-13
4546.0  9.09e-13
4547.4  8.705e-13
4548.8  8.566e-13
4550.2  8.933e-13
4551.6  8.928e-13
4553.0  8.709e-13
4554.4  8.99e-13
4555.8  9.326e-13
4557.2  9.364e-13
4558.6  9.719e-13
4560.0  1.005e-12
4561.4  9.36e-13
4562.8  9.002e-13
4564.2  9.347e-13
4565.6  9.659e-13
4567.0  9.712e-13
4568.4  9.526e-13
4569.8  9.127e-13
4571.2  9.416e-13
4572.6  9.852e-13
4574.0  9.752e-13
4575.4  9.295e-13
4576.8  9.195e-13
4578.2  9.037e-13
4579.6  8.843e-13
4581.0  8.881e-13
4582.4  8.808e-13
4583.8  8.801e-13
4585.2  9.086e-13
4586.6  9.097e-13
4588.0  8.929e-13
4589.4  9.073e-13
4590.8  9.496e-13
4592.2  9.756e-13
4593.6  9.468e-13
4595.0  9.313e-13
4596.4  9.36e-13
4597.8  9.244e-13
4599.2  9.456e-13
4600.6  9.61e-13
4602.0  9.672e-13
4603.4  9.401e-13
4604.8  9.487e-13
4606.2  9.767e-13
4607.6  9.962e-13
4609.0  9.836e-13
4610.4  9.421e-13
4611.8  9.303e-13
4613.2  9.591e-13
4614.6  9.602e-13
4616.0  9.201e-13
4617.4  8.908e-13
4618.8  9.156e-13
4620.2  9.593e-13
4621.6  9.963e-13
4623.0  9.967e-13
4624.4  9.663e-13
4625.8  9.486e-13
4627.2  8.933e-13
4628.6  9.227e-13
4630.0  9.473e-13
4631.4  9.154e-13
4632.8  9.388e-13
4634.2  9.639e-13
4635.6  9.332e-13
4637.0  9.2e-13
4638.4  9.418e-13
4639.8  9.619e-13
4641.2  9.744e-13
4642.6  9.823e-13
4644.0  9.559e-13
4645.4  9.289e-13
4646.8  9.421e-13
4648.2  9.458e-13
4649.6  9.626e-13
4651.0  9.774e-13
4652.4  9.443e-13
4653.8  9.395e-13
4655.2  9.697e-13
4656.6  9.736e-13
4658.0  9.562e-13
4659.4  9.687e-13
4660.8  9.949e-13
4662.2  9.819e-13
4663.6  9.352e-13
4665.0  9.057e-13
4666.4  9.102e-13
4667.8  9.416e-13
4669.2  9.589e-13
4670.6  9.709e-13
4672.0  9.996e-13
4673.4  9.948e-13
4674.8  9.932e-13
4676.2  9.977e-13
4677.6  9.829e-13
4679.0  9.729e-13
4680.4  9.881e-13
4681.8  1.039e-12
4683.2  1.03e-12
4684.6  1.015e-12
4686.0  9.925e-13
4687.4  9.834e-13
4688.8  1.003e-12
4690.2  1.001e-12
4691.6  9.933e-13
4693.0  9.709e-13
4694.4  9.677e-13
4695.8  9.816e-13
4697.2  9.907e-13
4698.6  9.818e-13
4700.0  9.247e-13
4701.4  9.146e-13
4702.8  9.683e-13
4704.2  9.742e-13
4705.6  9.453e-13
4707.0  9.252e-13
4708.4  9.28e-13
4709.8  9.483e-13
4711.2  9.528e-13
4712.6  9.498e-13
4714.0  9.413e-13
4715.4  9.361e-13
4716.8  9.27e-13
4718.2  9.021e-13
4719.6  9.442e-13
4721.0  9.707e-13
4722.4  9.719e-13
4723.8  9.851e-13
4725.2  9.682e-13
4726.6  9.396e-13
4728.0  9.154e-13
4729.4  9.062e-13
4730.8  9.207e-13
4732.2  9.182e-13
4733.6  9.07e-13
4735.0  9.043e-13
4736.4  9.1e-13
4737.8  9.395e-13
4739.2  9.618e-13
4740.6  9.562e-13
4742.0  9.493e-13
4743.4  9.363e-13
4744.8  9.326e-13
4746.2  9.477e-13
4747.6  9.511e-13
4749.0  9.573e-13
4750.4  9.66e-13
4751.8  9.514e-13
4753.2  9.165e-13
4754.6  9.154e-13
4756.0  9.181e-13
4757.4  9.398e-13
4758.8  9.622e-13
4760.2  9.033e-13
4761.6  8.569e-13
4763.0  8.486e-13
4764.4  8.568e-13
4765.8  8.816e-13
4767.2  9.075e-13
4768.6  9.309e-13
4770.0  9.425e-13
4771.4  9.377e-13
4772.8  9.232e-13
4774.2  9.175e-13
4775.6  9.336e-13
4777.0  9.6e-13
4778.4  9.551e-13
4779.8  9.476e-13
4781.2  9.542e-13
4782.6  9.263e-13
4784.0  9.147e-13
4785.4  8.804e-13
4786.8  8.784e-13
4788.2  9.3e-13
4789.6  9.545e-13
4791.0  9.401e-13
4792.4  9.218e-13
4793.8  9.392e-13
4795.2  9.369e-13
4796.6  9.55e-13
4798.0  9.349e-13
4799.4  9.138e-13
4800.8  9.493e-13
4802.2  9.509e-13
4803.6  9.055e-13
4805.0  8.992e-13
4806.4  9.011e-13
4807.8  8.923e-13
4809.2  8.803e-13
4810.6  8.768e-13
4812.0  8.944e-13
4813.4  9.004e-13
4814.8  8.899e-13
4816.2  8.902e-13
4817.6  9.146e-13
4819.0  9.302e-13
4820.4  9.153e-13
4821.8  9.046e-13
4823.2  8.942e-13
4824.6  8.964e-13
4826.0  9.191e-13
4827.4  9.174e-13
4828.8  9.021e-13
4830.2  9.061e-13
4831.6  9.144e-13
4833.0  9.252e-13
4834.4  9.148e-13
4835.8  9.024e-13
4837.2  9.102e-13
4838.6  9.142e-13
4840.0  9.267e-13
4841.4  9.287e-13
4842.8  9.126e-13
4844.2  8.921e-13
4845.6  8.613e-13
4847.0  8.448e-13
4848.4  8.355e-13
4849.8  8.461e-13
4851.2  8.202e-13
4852.6  7.753e-13
4854.0  7.436e-13
4855.4  7.052e-13
4856.8  6.395e-13
4858.2  5.808e-13
4859.6  5.624e-13
4861.0  6.027e-13
4862.4  6.688e-13
4863.8  7.264e-13
4865.2  7.527e-13
4866.6  7.69e-13
4868.0  7.791e-13
4869.4  7.748e-13
4870.8  7.901e-13
4872.2  8.128e-13
4873.6  8.405e-13
4875.0  8.449e-13
4876.4  8.203e-13
4877.8  8.338e-13
4879.2  8.462e-13
4880.6  8.55e-13
4882.0  8.494e-13
4883.4  8.389e-13
4884.8  8.51e-13
4886.2  8.106e-13
4887.6  8.055e-13
4889.0  8.157e-13
4890.4  8.423e-13
4891.8  8.855e-13
4893.2  9.147e-13
4894.6  9.067e-13
4896.0  8.993e-13
4897.4  8.89e-13
4898.8  8.942e-13
4900.2  9.069e-13
4901.6  9.093e-13
4903.0  9.181e-13
4904.4  9.096e-13
4905.8  8.858e-13
4907.2  8.778e-13
4908.6  8.929e-13
4910.0  8.731e-13
4911.4  8.657e-13
4912.8  8.826e-13
4914.2  8.887e-13
4915.6  8.81e-13
4917.0  8.697e-13
4918.4  8.616e-13
4919.8  8.425e-13
4921.2  8.021e-13
4922.6  7.93e-13
4924.0  8.3e-13
4925.4  8.822e-13
4926.8  9.177e-13
4928.2  9.282e-13
4929.6  9.009e-13
4931.0  8.548e-13
4932.4  8.475e-13
4933.8  8.738e-13
4935.2  8.929e-13
4936.6  8.867e-13
4938.0  8.689e-13
4939.4  8.679e-13
4940.8  8.901e-13
4942.2  9.148e-13
4943.6  9.086e-13
4945.0  8.906e-13
4946.4  8.723e-13
4947.8  8.627e-13
4949.2  9.097e-13
4950.6  9.222e-13
4952.0  9.082e-13
4953.4  8.67e-13
4954.8  8.389e-13
4956.2  8.392e-13
4957.6  8.493e-13
4959.0  8.586e-13
4960.4  8.645e-13
4961.8  8.944e-13
4963.2  9.218e-13
4964.6  9.21e-13
4966.0  9.227e-13
4967.4  9.091e-13
4968.8  8.936e-13
4970.2  8.939e-13
4971.6  9.007e-13
4973.0  9.037e-13
4974.4  9.049e-13
4975.8  9.032e-13
4977.2  8.794e-13
4978.6  8.669e-13
4980.0  8.466e-13
4981.4  8.134e-13
4982.8  8.099e-13
4984.2  8.198e-13
4985.6  8.558e-13
4987.0  8.921e-13
4988.4  9.044e-13
4989.8  8.934e-13
4991.2  8.631e-13
4992.6  8.68e-13
4994.0  8.943e-13
4995.4  9.022e-13
4996.8  8.918e-13
4998.2  8.682e-13
4999.6  8.658e-13
5001.0  8.744e-13
5002.4  8.45e-13
5003.8  8.036e-13
5005.2  8.001e-13
5006.6  7.936e-13
5008.0  8.131e-13
5009.4  8.378e-13
5010.8  8.338e-13
5012.2  7.983e-13
5013.6  7.808e-13
5015.0  8.077e-13
5016.4  8.079e-13
5017.8  8.069e-13
5019.2  8.206e-13
5020.6  8.283e-13
5022.0  8.217e-13
5023.4  8.686e-13
5024.8  8.824e-13
5026.2  8.729e-13
5027.6  8.588e-13
5029.0  8.497e-13
5030.4  8.451e-13
5031.8  8.921e-13
5033.2  9.255e-13
5034.6  8.971e-13
5036.0  8.412e-13
5037.4  8.524e-13
5038.8  8.281e-13
5040.2  8.027e-13
5041.6  8.016e-13
5043.0  8.174e-13
5044.4  8.439e-13
5045.8  8.621e-13
5047.2  8.509e-13
5048.6  8.306e-13
5050.0  8.357e-13
5051.4  8.535e-13
5052.8  8.543e-13
5054.2  8.384e-13
5055.6  8.358e-13
5057.0  8.567e-13
5058.4  8.67e-13
5059.8  8.545e-13
5061.2  8.423e-13
5062.6  8.381e-13
5064.0  8.368e-13
5065.4  8.385e-13
5066.8  8.493e-13
5068.2  8.654e-13
5069.6  8.688e-13
5071.0  8.561e-13
5072.4  8.423e-13
5073.8  8.419e-13
5075.2  8.522e-13
5076.6  8.474e-13
5078.0  8.302e-13
5079.4  8.078e-13
5080.8  7.868e-13
5082.2  8.086e-13
5083.6  8.266e-13
5085.0  8.44e-13
5086.4  8.54e-13
5087.8  8.629e-13
5089.2  8.765e-13
5090.6  8.592e-13
5092.0  8.629e-13
5093.4  8.556e-13
5094.8  8.381e-13
5096.2  8.134e-13
5097.6  8.117e-13
5099.0  8.14e-13
5100.4  8.407e-13
5101.8  8.714e-13
5103.2  8.797e-13
5104.6  8.614e-13
5106.0  8.324e-13
5107.4  8.182e-13
5108.8  8.341e-13
5110.2  8.58e-13
5111.6  8.629e-13
5113.0  8.521e-13
5114.4  8.535e-13
5115.8  8.699e-13
5117.2  8.776e-13
5118.6  8.63e-13
5120.0  8.351e-13
5121.4  8.193e-13
5122.8  8.236e-13
5124.2  8.307e-13
5125.6  8.27e-13
5127.0  8.159e-13
5128.4  8.064e-13
5129.8  8.035e-13
5131.2  8.027e-13
5132.6  7.958e-13
5134.0  7.997e-13
5135.4  8.09e-13
5136.8  8.153e-13
5138.2  8.067e-13
5139.6  8.145e-13
5141.0  8.082e-13
5142.4  7.941e-13
5143.8  7.853e-13
5145.2  8.182e-13
5146.6  8.122e-13
5148.0  8.093e-13
5149.4  8.099e-13
5150.8  8.133e-13
5152.2  7.884e-13
5153.6  7.748e-13
5155.0  7.922e-13
5156.4  8.106e-13
5157.8  8.175e-13
5159.2  7.993e-13
5160.6  8.034e-13
5162.0  8.043e-13
5163.4  7.93e-13
5164.8  7.652e-13
5166.2  7.007e-13
5167.6  6.813e-13
5169.0  6.987e-13
5170.4  7.283e-13
5171.8  7.657e-13
5173.2  8.239e-13
5174.6  8.378e-13
5176.0  8.419e-13
5177.4  8.517e-13
5178.8  8.439e-13
5180.2  8.262e-13
5181.6  7.885e-13
5183.0  7.608e-13
5184.4  7.596e-13
5185.8  7.59e-13
5187.2  7.441e-13
5188.6  7.301e-13
5190.0  7.402e-13
5191.4  7.581e-13
5192.8  7.689e-13
5194.2  7.649e-13
5195.6  7.555e-13
5197.0  7.532e-13
5198.4  7.628e-13
5199.8  7.823e-13
5201.2  7.969e-13
5202.6  7.821e-13
5204.0  7.608e-13
5205.4  7.734e-13
5206.8  7.926e-13
5208.2  8.111e-13
5209.6  8.084e-13
5211.0  8.088e-13
5212.4  8.127e-13
5213.8  8.066e-13
5215.2  7.871e-13
5216.6  8.107e-13
5218.0  8.305e-13
5219.4  8.434e-13
5220.8  8.422e-13
5222.2  8.201e-13
5223.6  7.775e-13
5225.0  7.427e-13
5226.4  7.445e-13
5227.8  7.643e-13
5229.2  7.697e-13
5230.6  7.524e-13
5232.0  7.317e-13
5233.4  7.357e-13
5234.8  7.604e-13
5236.2  8.029e-13
5237.6  8.034e-13
5239.0  7.911e-13
5240.4  8.009e-13
5241.8  8.126e-13
5243.2  8.069e-13
5244.6  8.003e-13
5246.0  8.024e-13
5247.4  8.068e-13
5248.8  8.101e-13
5250.2  8.141e-13
5251.6  8.103e-13
5253.0  7.898e-13
5254.4  7.754e-13
5255.8  7.87e-13
5257.2  8.121e-13
5258.6  8.095e-13
5260.0  7.894e-13
5261.4  7.669e-13
5262.8  7.491e-13
5264.2  7.436e-13
5265.6  7.429e-13
5267.0  7.29e-13
5268.4  7.248e-13
5269.8  7.406e-13
5271.2  7.642e-13
5272.6  7.521e-13
5274.0  7.401e-13
5275.4  7.408e-13
5276.8  7.55e-13
5278.2  7.777e-13
5279.6  7.715e-13
5281.0  7.633e-13
5282.4  7.639e-13
5283.8  7.763e-13
5285.2  7.864e-13
5286.6  7.936e-13
5288.0  8.029e-13
5289.4  8.1e-13
5290.8  8.068e-13
5292.2  7.997e-13
5293.6  7.965e-13
5295.0  7.997e-13
5296.4  8.01e-13
5297.8  8.147e-13
5299.2  8.133e-13
5300.6  7.945e-13
5302.0  7.894e-13
5303.4  8e-13
5304.8  8.107e-13
5306.2  8.167e-13
5307.6  8.151e-13
5309.0  8.136e-13
5310.4  8.179e-13
5311.8  8.089e-13
5313.2  7.767e-13
5314.6  7.488e-13
5316.0  7.589e-13
5317.4  7.873e-13
5318.8  7.968e-13
5320.2  7.963e-13
5321.6  7.858e-13
5323.0  7.705e-13
5324.4  7.657e-13
5325.8  7.521e-13
5327.2  7.403e-13
5328.6  7.472e-13
5330.0  7.808e-13
5331.4  7.772e-13
5332.8  7.598e-13
5334.2  7.475e-13
5335.6  7.403e-13
5337.0  7.641e-13
5338.4  7.835e-13
5339.8  7.944e-13
5341.2  7.897e-13
5342.6  7.978e-13
5344.0  8.063e-13
5345.4  8.083e-13
5346.8  8.104e-13
5348.2  8.103e-13
5349.6  7.957e-13
5351.0  7.809e-13
5352.4  7.898e-13
5353.8  8.005e-13
5355.2  8.162e-13
5356.6  8.24e-13
5358.0  8.089e-13
5359.4  7.988e-13
5360.8  7.875e-13
5362.2  7.813e-13
5363.6  7.827e-13
5365.0  7.54e-13
5366.4  7.52e-13
5367.8  7.629e-13
5369.2  7.59e-13
5370.6  7.677e-13
5372.0  7.711e-13
5373.4  7.718e-13
5374.8  7.799e-13
5376.2  7.778e-13
5377.6  7.818e-13
5379.0  7.923e-13
5380.4  7.933e-13
5381.8  7.998e-13
5383.2  8.006e-13
5384.6  7.964e-13
5386.0  8.083e-13
5387.4  8.144e-13
5388.8  8.084e-13
5390.2  7.898e-13
5391.6  7.73e-13
5393.0  7.658e-13
5394.4  7.587e-13
5395.8  7.444e-13
5397.2  7.433e-13
5398.6  7.534e-13
5400.0  7.499e-13
5401.4  7.342e-13
5402.8  7.45e-13
5404.2  7.501e-13
5405.6  7.692e-13
5407.0  7.772e-13
5408.4  7.542e-13
5409.8  7.47e-13
5411.2  7.489e-13
5412.6  7.611e-13
5414.0  7.486e-13
5415.4  7.491e-13
5416.8  7.493e-13
5418.2  7.442e-13
5419.6  7.424e-13
5421.0  7.314e-13
5422.4  7.356e-13
5423.8  7.548e-13
5425.2  7.658e-13
5426.6  7.613e-13
5428.0  7.637e-13
5429.4  7.661e-13
5430.8  7.588e-13
5432.2  7.312e-13
5433.6  7.381e-13
5435.0  7.73e-13
5436.4  7.882e-13
5437.8  7.987e-13
5439.2  8.043e-13
5440.6  8.017e-13
5442.0  7.987e-13
5443.4  7.775e-13
5444.8  7.465e-13
5446.2  7.352e-13
5447.6  7.309e-13
5449.0  7.388e-13
5450.4  7.574e-13
5451.8  7.547e-13
5453.2  7.329e-13
5454.6  7.162e-13
5456.0  7.195e-13
5457.4  7.451e-13
5458.8  7.571e-13
5460.2  7.61e-13
5461.6  7.684e-13
5463.0  7.7e-13
5464.4  7.771e-13
5465.8  7.691e-13
5467.2  7.45e-13
5468.6  7.567e-13
5470.0  7.624e-13
5471.4  7.633e-13
5472.8  7.599e-13
5474.2  7.482e-13
5475.6  7.383e-13
5477.0  7.459e-13
5478.4  7.533e-13
5479.8  7.45e-13
5481.2  7.474e-13
5482.6  7.547e-13
5484.0  7.636e-13
5485.4  7.564e-13
5486.8  7.477e-13
5488.2  7.376e-13
5489.6  7.29e-13
5491.0  7.311e-13
5492.4  7.382e-13
5493.8  7.564e-13
5495.2  7.744e-13
5496.6  7.85e-13
5498.0  7.62e-13
5499.4  7.541e-13
5500.8  7.817e-13
5502.2  7.991e-13
5503.6  7.898e-13
5505.0  7.599e-13
5506.4  7.405e-13
5507.8  7.297e-13
5509.2  7.291e-13
5510.6  7.313e-13
5512.0  7.264e-13
5513.4  7.319e-13
5514.8  7.338e-13
5516.2  7.291e-13
5517.6  7.36e-13
5519.0  7.475e-13
5520.4  7.495e-13
5521.8  7.448e-13
5523.2  7.323e-13
5524.6  7.146e-13
5526.0  7.054e-13
5527.4  7.072e-13
5528.8  7.158e-13
5530.2  7.353e-13
5531.6  7.401e-13
5533.0  7.382e-13
5534.4  7.362e-13
5535.8  7.584e-13
5537.2  7.614e-13
5538.6  7.512e-13
5540.0  7.466e-13
5541.4  7.496e-13
5542.8  7.537e-13
5544.2  7.588e-13
5545.6  7.582e-13
5547.0  7.667e-13
5548.4  7.742e-13
5549.8  7.706e-13
5551.2  7.621e-13
5552.6  7.432e-13
5554.0  7.359e-13
5555.4  7.43e-13
5556.8  7.475e-13
5558.2  7.515e-13
5559.6  7.537e-13
5561.0  7.514e-13
5562.4  7.594e-13
5563.8  7.687e-13
5565.2  7.666e-13
5566.6  7.554e-13
5568.0  7.38e-13
5569.4  7.282e-13
5570.8  7.246e-13
5572.2  7.252e-13
5573.6  7.404e-13
5575.0  7.619e-13
5576.4  7.771e-13
5577.8  7.821e-13
5579.2  7.753e-13
5580.6  7.699e-13
5582.0  7.646e-13
5583.4  7.421e-13
5584.8  7.253e-13
5586.2  7.071e-13
5587.6  7.025e-13
5589.0  7.247e-13
5590.4  7.271e-13
5591.8  7.353e-13
5593.2  7.403e-13
5594.6  7.412e-13
5596.0  7.276e-13
5597.4  7.113e-13
5598.8  6.964e-13
5600.2  7.09e-13
5601.6  7.148e-13
5603.0  7.141e-13
5604.4  7.246e-13
5605.8  7.325e-13
5607.2  7.572e-13
5608.6  7.573e-13
5610.0  7.55e-13
5611.4  7.69e-13
5612.8  7.678e-13
5614.2  7.398e-13
5615.6  7.223e-13
5617.0  7.2e-13
5618.4  7.191e-13
5619.8  7.368e-13
5621.2  7.449e-13
5622.6  7.358e-13
5624.0  7.335e-13
5625.4  7.304e-13
5626.8  7.293e-13
5628.2  7.339e-13
5629.6  7.372e-13
5631.0  7.388e-13
5632.4  7.365e-13
5633.8  7.39e-13
5635.2  7.469e-13
5636.6  7.628e-13
5638.0  7.709e-13
5639.4  7.452e-13
5640.8  7.366e-13
5642.2  7.426e-13
5643.6  7.467e-13
5645.0  7.52e-13
5646.4  7.521e-13
5647.8  7.441e-13
5649.2  7.34e-13
5650.6  7.321e-13
5652.0  7.405e-13
5653.4  7.299e-13
5654.8  7.177e-13
5656.2  7.216e-13
5657.6  7.095e-13
5659.0  7.079e-13
5660.4  7.187e-13
5661.8  7.255e-13
5663.2  7.361e-13
5664.6  7.338e-13
5666.0  7.176e-13
5667.4  7.189e-13
5668.8  7.132e-13
5670.2  7.199e-13
5671.6  7.272e-13
5673.0  7.243e-13
5674.4  7.265e-13
5675.8  7.342e-13
5677.2  7.391e-13
5678.6  7.407e-13
5680.0  7.329e-13
5681.4  7.205e-13
5682.8  7.132e-13
5684.2  7.071e-13
5685.6  7.044e-13
5687.0  6.987e-13
5688.4  7.097e-13
5689.8  7.299e-13
5691.2  7.304e-13
5692.6  7.324e-13
5694.0  7.359e-13
5695.4  7.33e-13
5696.8  7.442e-13
5698.2  7.528e-13
5699.6  7.339e-13
5701.0  7.151e-13
5702.4  7.116e-13
5703.8  7.037e-13
5705.2  7.073e-13
5706.6  7.061e-13
5708.0  6.886e-13
5709.4  6.759e-13
5710.8  6.799e-13
5712.2  7.03e-13
5713.6  7.17e-13
5715.0  7.219e-13
5716.4  7.168e-13
5717.8  7.164e-13
5719.2  7.21e-13
5720.6  7.322e-13
5722.0  7.543e-13
5723.4  7.622e-13
5724.8  7.55e-13
5726.2  7.604e-13
5727.6  7.445e-13
5729.0  7.329e-13
5730.4  7.374e-13
5731.8  7.415e-13
5733.2  7.322e-13
5734.6  7.229e-13
5736.0  7.13e-13
5737.4  7.133e-13
5738.8  7.088e-13
5740.2  7.204e-13
5741.6  7.242e-13
5743.0  7.137e-13
5744.4  7.028e-13
5745.8  6.903e-13
5747.2  7.009e-13
5748.6  7.208e-13
5750.0  7.261e-13
5751.4  7.234e-13
5752.8  7.192e-13
5754.2  7.173e-13
5755.6  7.153e-13
5757.0  7.118e-13
5758.4  7.201e-13
5759.8  7.205e-13
5761.2  7.052e-13
5762.6  7.112e-13
5764.0  7.271e-13
5765.4  7.239e-13
5766.8  7.041e-13
5768.2  6.996e-13
5769.6  7.056e-13
5771.0  6.995e-13
5772.4  6.786e-13
5773.8  6.997e-13
5775.2  7.165e-13
5776.6  7.026e-13
5778.0  6.856e-13
5779.4  6.654e-13
5780.8  6.517e-13
5782.2  6.64e-13
5783.6  6.774e-13
5785.0  7.085e-13
5786.4  7.207e-13
5787.8  7.12e-13
5789.2  7.131e-13
5790.6  7.217e-13
5792.0  7.258e-13
5793.4  6.93e-13
5794.8  6.726e-13
5796.2  6.748e-13
5797.6  6.86e-13
5799.0  7.068e-13
5800.4  7.167e-13
5801.8  7.252e-13
5803.2  7.173e-13
5804.6  7.059e-13
5806.0  7.025e-13
5807.4  7.164e-13
5808.8  7.147e-13
5810.2  7.02e-13
5811.6  6.898e-13
5813.0  6.864e-13
5814.4  7.066e-13
5815.8  7.155e-13
5817.2  7.079e-13
5818.6  7.064e-13
5820.0  7.145e-13
5821.4  7.314e-13
5822.8  7.39e-13
5824.2  7.296e-13
5825.6  7.12e-13
5827.0  6.957e-13
5828.4  7.005e-13
5829.8  7.272e-13
5831.2  7.317e-13
5832.6  7.157e-13
5834.0  7.063e-13
5835.4  7.156e-13
5836.8  7.341e-13
5838.2  7.465e-13
5839.6  7.467e-13
5841.0  7.385e-13
5842.4  7.235e-13
5843.8  7.073e-13
5845.2  7.02e-13
5846.6  6.891e-13
5848.0  6.862e-13
5849.4  6.933e-13
5850.8  7.006e-13
5852.2  7.113e-13
5853.6  7.108e-13
5855.0  7.022e-13
5856.4  6.943e-13
5857.8  6.782e-13
5859.2  6.657e-13
5860.6  6.781e-13
5862.0  6.922e-13
5863.4  7.066e-13
5864.8  7.128e-13
5866.2  7.089e-13
5867.6  7.131e-13
5869.0  7.214e-13
5870.4  7.256e-13
5871.8  7.07e-13
5873.2  7.126e-13
5874.6  7.15e-13
5876.0  7.073e-13
5877.4  7.127e-13
5878.8  7.107e-13
5880.2  6.886e-13
5881.6  6.779e-13
5883.0  6.856e-13
5884.4  6.845e-13
5885.8  6.607e-13
5887.2  6.107e-13
5888.6  5.787e-13
5890.0  5.979e-13
5891.4  6.244e-13
5892.8  6.234e-13
5894.2  6.264e-13
5895.6  6.639e-13
5897.0  7.012e-13
5898.4  6.955e-13
5899.8  6.956e-13
5901.2  6.982e-13
5902.6  7.007e-13
5904.0  6.993e-13
5905.4  7.067e-13
5906.8  7.073e-13
5908.2  6.987e-13
5909.6  6.919e-13
5911.0  6.853e-13
5912.4  6.871e-13
5913.8  6.906e-13
5915.2  6.883e-13
5916.6  6.866e-13
5918.0  6.79e-13
5919.4  6.937e-13
5920.8  6.925e-13
5922.2  6.953e-13
5923.6  6.981e-13
5925.0  6.902e-13
5926.4  6.722e-13
5927.8  6.723e-13
5929.2  6.797e-13
5930.6  6.735e-13
5932.0  6.65e-13
5933.4  6.735e-13
5934.8  6.879e-13
5936.2  6.983e-13
5937.6  6.847e-13
5939.0  6.673e-13
5940.4  6.79e-13
5941.8  6.952e-13
5943.2  6.933e-13
5944.6  6.769e-13
5946.0  6.687e-13
5947.4  6.743e-13
5948.8  6.709e-13
5950.2  6.713e-13
5951.6  6.758e-13
5953.0  6.728e-13
5954.4  6.76e-13
5955.8  6.688e-13
5957.2  6.617e-13
5958.6  6.679e-13
5960.0  6.816e-13
5961.4  6.934e-13
5962.8  6.985e-13
5964.2  6.899e-13
5965.6  6.802e-13
5967.0  6.691e-13
5968.4  6.656e-13
5969.8  6.842e-13
5971.2  6.851e-13
5972.6  6.651e-13
5974.0  6.507e-13
5975.4  6.636e-13
5976.8  6.711e-13
5978.2  6.575e-13
5979.6  6.591e-13
5981.0  6.699e-13
5982.4  6.859e-13
5983.8  6.943e-13
5985.2  7.101e-13
5986.6  6.964e-13
5988.0  6.864e-13
5989.4  7.002e-13
5990.8  7.099e-13
5992.2  7.028e-13
5993.6  6.803e-13
5995.0  6.815e-13
5996.4  6.934e-13
5997.8  6.87e-13
5999.2  6.777e-13
6000.6  6.623e-13
6002.0  6.634e-13
6003.4  6.7e-13
6004.8  6.566e-13
6006.2  6.393e-13
6007.6  6.441e-13
6009.0  6.608e-13
6010.4  6.695e-13
6011.8  6.722e-13
6013.2  6.701e-13
6014.6  6.62e-13
6016.0  6.626e-13
6017.4  6.735e-13
6018.8  6.605e-13
6020.2  6.388e-13
6021.6  6.252e-13
6023.0  6.254e-13
6024.4  6.437e-13
6025.8  6.611e-13
6027.2  6.642e-13
6028.6  6.583e-13
6030.0  6.506e-13
6031.4  6.563e-13
6032.8  6.627e-13
6034.2  6.752e-13
6035.6  6.533e-13
6037.0  6.416e-13
6038.4  6.506e-13
6039.8  6.587e-13
6041.2  6.671e-13
6042.6  6.587e-13
6044.0  6.55e-13
6045.4  6.62e-13
6046.8  6.65e-13
6048.2  6.642e-13
6049.6  6.621e-13
6051.0  6.605e-13
6052.4  6.489e-13
6053.8  6.457e-13
6055.2  6.574e-13
6056.6  6.66e-13
6058.0  6.601e-13
6059.4  6.475e-13
6060.8  6.435e-13
6062.2  6.495e-13
6063.6  6.551e-13
6065.0  6.613e-13
6066.4  6.659e-13
6067.8  6.648e-13
6069.2  6.68e-13
6070.6  6.66e-13
6072.0  6.641e-13
6073.4  6.645e-13
6074.8  6.588e-13
6076.2  6.468e-13
6077.6  6.54e-13
6079.0  6.582e-13
6080.4  6.528e-13
6081.8  6.439e-13
6083.2  6.345e-13
6084.6  6.343e-13
6086.0  6.349e-13
6087.4  6.425e-13
6088.8  6.466e-13
6090.2  6.414e-13
6091.6  6.451e-13
6093.0  6.517e-13
6094.4  6.574e-13
6095.8  6.603e-13
6097.2  6.52e-13
6098.6  6.316e-13
6100.0  6.169e-13
6101.4  6.313e-13
6102.8  6.435e-13
6104.2  6.35e-13
6105.6  6.266e-13
6107.0  6.26e-13
6108.4  6.32e-13
6109.8  6.355e-13
6111.2  6.376e-13
6112.6  6.506e-13
6114.0  6.595e-13
6115.4  6.462e-13
6116.8  6.327e-13
6118.2  6.384e-13
6119.6  6.336e-13
6121.0  6.143e-13
6122.4  6.158e-13
6123.8  6.416e-13
6125.2  6.618e-13
6126.6  6.63e-13
6128.0  6.685e-13
6129.4  6.611e-13
6130.8  6.558e-13
6132.2  6.548e-13
6133.6  6.435e-13
6135.0  6.171e-13
6136.4  6.01e-13
6137.8  6.104e-13
6139.2  6.302e-13
6140.6  6.282e-13
6142.0  6.125e-13
6143.4  6.118e-13
6144.8  6.152e-13
6146.2  6.11e-13
6147.6  6.121e-13
6149.0  6.255e-13
6150.4  6.354e-13
6151.8  6.369e-13
6153.2  6.48e-13
6154.6  6.529e-13
6156.0  6.448e-13
6157.4  6.375e-13
6158.8  6.341e-13
6160.2  6.34e-13
6161.6  6.305e-13
6163.0  6.258e-13
6164.4  6.29e-13
6165.8  6.275e-13
6167.2  6.124e-13
6168.6  6.027e-13
6170.0  6.018e-13
6171.4  6.075e-13
6172.8  6.213e-13
6174.2  6.35e-13
6175.6  6.402e-13
6177.0  6.358e-13
6178.4  6.348e-13
6179.8  6.457e-13
6181.2  6.569e-13
6182.6  6.536e-13
6184.0  6.561e-13
6185.4  6.46e-13
6186.8  6.303e-13
6188.2  6.105e-13
6189.6  5.986e-13
6191.0  6.139e-13
6192.4  6.281e-13
6193.8  6.338e-13
6195.2  6.354e-13
6196.6  6.364e-13
6198.0  6.368e-13
6199.4  6.332e-13
6200.8  6.252e-13
6202.2  6.375e-13
6203.6  6.46e-13
6205.0  6.39e-13
6206.4  6.347e-13
6207.8  6.345e-13
6209.2  6.359e-13
6210.6  6.357e-13
6212.0  6.347e-13
6213.4  6.321e-13
6214.8  6.21e-13
6216.2  6.078e-13
6217.6  6.035e-13
6219.0  6.145e-13
6220.4  6.281e-13
6221.8  6.296e-13
6223.2  6.277e-13
6224.6  6.167e-13
6226.0  6.085e-13
6227.4  6.095e-13
6228.8  6.105e-13
6230.2  6.167e-13
6231.6  6.162e-13
6233.0  6.267e-13
6234.4  6.328e-13
6235.8  6.398e-13
6237.2  6.526e-13
6238.6  6.202e-13
6240.0  5.982e-13
6241.4  6.061e-13
6242.8  6.166e-13
6244.2  6.114e-13
6245.6  5.962e-13
6247.0  5.821e-13
6248.4  5.825e-13
6249.8  5.971e-13
6251.2  6.082e-13
6252.6  6.077e-13
6254.0  6.029e-13
6255.4  6.022e-13
6256.8  6.086e-13
6258.2  6.215e-13
6259.6  6.244e-13
6261.0  6.076e-13
6262.4  5.841e-13
6263.8  5.733e-13
6265.2  5.908e-13
6266.6  6.182e-13
6268.0  6.304e-13
6269.4  6.273e-13
6270.8  6.053e-13
6272.2  5.879e-13
6273.6  5.977e-13
6275.0  6.134e-13
6276.4  6.017e-13
6277.8  5.801e-13
6279.2  5.643e-13
6280.6  5.656e-13
6282.0  5.816e-13
6283.4  5.919e-13
6284.8  5.982e-13
6286.2  6.169e-13
6287.6  6.283e-13
6289.0  6.243e-13
6290.4  6.074e-13
6291.8  5.866e-13
6293.2  5.91e-13
6294.6  6.034e-13
6296.0  6.146e-13
6297.4  6.196e-13
6298.8  6.17e-13
6300.2  6.132e-13
6301.6  6.167e-13
6303.0  6.159e-13
6304.4  6.163e-13
6305.8  6.162e-13
6307.2  6.135e-13
6308.6  6.264e-13
6310.0  6.261e-13
6311.4  6.01e-13
6312.8  5.897e-13
6314.2  5.992e-13
6315.6  6.046e-13
6317.0  6.012e-13
6318.4  5.955e-13
6319.8  5.925e-13
6321.2  6.046e-13
6322.6  6.174e-13
6324.0  6.15e-13
6325.4  6.129e-13
6326.8  6.213e-13
6328.2  6.181e-13
6329.6  6.06e-13
6331.0  6.161e-13
6332.4  6.253e-13
6333.8  6.117e-13
6335.2  5.996e-13
6336.6  5.901e-13
6338.0  6.105e-13
6339.4  6.268e-13
6340.8  6.285e-13
6342.2  6.293e-13
6343.6  6.115e-13
6345.0  5.86e-13
6346.4  5.751e-13
6347.8  5.787e-13
6349.2  5.897e-13
6350.6  6.008e-13
6352.0  6.087e-13
6353.4  5.988e-13
6354.8  5.922e-13
6356.2  6.03e-13
6357.6  6.123e-13
6359.0  6.041e-13
6360.4  6.041e-13
6361.8  6.01e-13
6363.2  5.844e-13
6364.6  5.744e-13
6366.0  5.728e-13
6367.4  5.896e-13
6368.8  6.015e-13
6370.2  5.84e-13
6371.6  5.799e-13
6373.0  5.998e-13
6374.4  6.063e-13
6375.8  5.914e-13
6377.2  5.824e-13
6378.6  5.673e-13
6380.0  5.59e-13
6381.4  5.727e-13
6382.8  5.891e-13
6384.2  5.744e-13
6385.6  5.686e-13
6387.0  5.714e-13
6388.4  5.819e-13
6389.8  5.918e-13
6391.2  5.863e-13
6392.6  5.701e-13
6394.0  5.839e-13
6395.4  6.039e-13
6396.8  6.126e-13
6398.2  6.19e-13
6399.6  6.054e-13
6401.0  6.025e-13
6402.4  6.115e-13
6403.8  6.09e-13
6405.2  5.921e-13
6406.6  5.784e-13
6408.0  5.877e-13
6409.4  5.998e-13
6410.8  5.967e-13
6412.2  5.87e-13
6413.6  5.765e-13
6415.0  5.704e-13
6416.4  5.724e-13
6417.8  5.746e-13
6419.2  5.711e-13
6420.6  5.724e-13
6422.0  5.854e-13
6423.4  6.027e-13
6424.8  6.087e-13
6426.2  5.942e-13
6427.6  5.829e-13
6429.0  5.853e-13
6430.4  5.856e-13
6431.8  5.829e-13
6433.2  5.821e-13
6434.6  5.837e-13
6436.0  5.837e-13
6437.4  5.715e-13
6438.8  5.688e-13
6440.2  5.882e-13
6441.6  6.022e-13
6443.0  5.883e-13
6444.4  5.854e-13
6445.8  5.834e-13
6447.2  5.751e-13
6448.6  5.68e-13
6450.0  5.699e-13
6451.4  5.685e-13
6452.8  5.81e-13
6454.2  5.811e-13
6455.6  5.685e-13
6457.0  5.716e-13
6458.4  5.815e-13
6459.8  5.851e-13
6461.2  5.786e-13
6462.6  5.71e-13
6464.0  5.742e-13
6465.4  5.792e-13
6466.8  5.847e-13
6468.2  5.916e-13
6469.6  5.9e-13
6471.0  5.804e-13
6472.4  5.802e-13
6473.8  5.878e-13
6475.2  5.94e-13
6476.6  6.067e-13
6478.0  6.013e-13
6479.4  5.804e-13
6480.8  5.748e-13
6482.2  5.698e-13
6483.6  5.696e-13
6485.0  5.679e-13
6486.4  5.693e-13
6487.8  5.793e-13
6489.2  5.867e-13
6490.6  5.783e-13
6492.0  5.618e-13
6493.4  5.597e-13
6494.8  5.538e-13
6496.2  5.473e-13
6497.6  5.549e-13
6499.0  5.779e-13
6500.4  5.965e-13
6501.8  6.043e-13
6503.2  6.003e-13
6504.6  5.88e-13
6506.0  5.692e-13
6507.4  5.698e-13
6508.8  5.888e-13
6510.2  5.967e-13
6511.6  5.859e-13
6513.0  5.744e-13
6514.4  5.644e-13
6515.8  5.58e-13
6517.2  5.621e-13
6518.6  5.714e-13
6520.0  5.709e-13
6521.4  5.723e-13
6522.8  5.861e-13
6524.2  5.9e-13
6525.6  5.782e-13
6527.0  5.72e-13
6528.4  5.76e-13
6529.8  5.816e-13
6531.2  5.949e-13
6532.6  5.969e-13
6534.0  5.87e-13
6535.4  5.888e-13
6536.8  5.888e-13
6538.2  5.83e-13
6539.6  5.776e-13
6541.0  5.723e-13
6542.4  5.684e-13
6543.8  5.647e-13
6545.2  5.571e-13
6546.6  5.491e-13
6548.0  5.476e-13
6549.4  5.579e-13
6550.8  5.649e-13
6552.2  5.553e-13
6553.6  5.39e-13
6555.0  5.179e-13
6556.4  4.993e-13
6557.8  4.807e-13
6559.2  4.512e-13
6560.6  4.042e-13
6562.0  3.796e-13
6563.4  4.006e-13
6564.8  4.445e-13
6566.2  4.795e-13
6567.6  5.049e-13
6569.0  5.295e-13
6570.4  5.501e-13
6571.8  5.643e-13
6573.2  5.721e-13
6574.6  5.706e-13
6576.0  5.713e-13
6577.4  5.856e-13
6578.8  5.918e-13
6580.2  5.802e-13
6581.6  5.716e-13
6583.0  5.688e-13
6584.4  5.66e-13
6585.8  5.635e-13
6587.2  5.665e-13
6588.6  5.587e-13
6590.0  5.451e-13
6591.4  5.39e-13
6592.8  5.475e-13
6594.2  5.589e-13
6595.6  5.606e-13
6597.0  5.61e-13
6598.4  5.75e-13
6599.8  5.828e-13
6601.2  5.917e-13
6602.6  5.981e-13
6604.0  5.881e-13
6605.4  5.781e-13
6606.8  5.701e-13
6608.2  5.726e-13
6609.6  5.796e-13
6611.0  5.76e-13
6612.4  5.743e-13
6613.8  5.735e-13
6615.2  5.732e-13
6616.6  5.751e-13
6618.0  5.7e-13
6619.4  5.605e-13
6620.8  5.57e-13
6622.2  5.631e-13
6623.6  5.75e-13
6625.0  5.761e-13
6626.4  5.63e-13
6627.8  5.547e-13
6629.2  5.613e-13
6630.6  5.704e-13
6632.0  5.695e-13
6633.4  5.681e-13
6634.8  5.724e-13
6636.2  5.798e-13
6637.6  5.82e-13
6639.0  5.719e-13
6640.4  5.541e-13
6641.8  5.481e-13
6643.2  5.577e-13
6644.6  5.535e-13
6646.0  5.547e-13
6647.4  5.657e-13
6648.8  5.657e-13
6650.2  5.705e-13
6651.6  5.695e-13
6653.0  5.658e-13
6654.4  5.727e-13
6655.8  5.738e-13
6657.2  5.707e-13
6658.6  5.713e-13
6660.0  5.743e-13
6661.4  5.681e-13
6662.8  5.772e-13
6664.2  5.843e-13
6665.6  5.761e-13
6667.0  5.784e-13
6668.4  5.849e-13
6669.8  5.882e-13
6671.2  5.87e-13
6672.6  5.769e-13
6674.0  5.711e-13
6675.4  5.674e-13
6676.8  5.532e-13
6678.2  5.398e-13
6679.6  5.449e-13
6681.0  5.661e-13
6682.4  5.868e-13
6683.8  5.928e-13
6685.2  5.822e-13
6686.6  5.755e-13
6688.0  5.83e-13
6689.4  5.856e-13
6690.8  5.834e-13
6692.2  5.802e-13
6693.6  5.707e-13
6695.0  5.694e-13
6696.4  5.703e-13
6697.8  5.629e-13
6699.2  5.618e-13
6700.6  5.7e-13
6702.0  5.783e-13
6703.4  5.805e-13
6704.8  5.845e-13
6706.2  5.813e-13
6707.6  5.658e-13
6709.0  5.423e-13
6710.4  5.392e-13
6711.8  5.533e-13
6713.2  5.606e-13
6714.6  5.515e-13
6716.0  5.37e-13
6717.4  5.408e-13
6718.8  5.559e-13
6720.2  5.663e-13
6721.6  5.74e-13
6723.0  5.797e-13
6724.4  5.832e-13
6725.8  5.789e-13
6727.2  5.645e-13
6728.6  5.587e-13
6730.0  5.592e-13
6731.4  5.556e-13
6732.8  5.604e-13
6734.2  5.664e-13
6735.6  5.596e-13
6737.0  5.503e-13
6738.4  5.526e-13
6739.8  5.662e-13
6741.2  5.748e-13
6742.6  5.687e-13
6744.0  5.63e-13
6745.4  5.679e-13
6746.8  5.753e-13
6748.2  5.652e-13
6749.6  5.459e-13
6751.0  5.381e-13
6752.4  5.476e-13
6753.8  5.632e-13
6755.2  5.712e-13
6756.6  5.671e-13
6758.0  5.555e-13
6759.4  5.567e-13
6760.8  5.558e-13
6762.2  5.585e-13
6763.6  5.699e-13
6765.0  5.741e-13
6766.4  5.684e-13
6767.8  5.589e-13
6769.2  5.508e-13
6770.6  5.485e-13
6772.0  5.469e-13
6773.4  5.493e-13
6774.8  5.556e-13
6776.2  5.509e-13
6777.6  5.543e-13
6779.0  5.707e-13
6780.4  5.82e-13
6781.8  5.897e-13
6783.2  5.898e-13
6784.6  5.801e-13
6786.0  5.682e-13
6787.4  5.58e-13
6788.8  5.608e-13
6790.2  5.72e-13
6791.6  5.704e-13
6793.0  5.616e-13
6794.4  5.58e-13
6795.8  5.659e-13
6797.2  5.72e-13
6798.6  5.586e-13
6800.0  5.468e-13
6801.4  5.63e-13
6802.8  5.754e-13
6804.2  5.751e-13
6805.6  5.636e-13
6807.0  5.515e-13
6808.4  5.497e-13
6809.8  5.606e-13
6811.2  5.693e-13
6812.6  5.67e-13
6814.0  5.712e-13
6815.4  5.701e-13
6816.8  5.586e-13
6818.2  5.454e-13
6819.6  5.42e-13
6821.0  5.563e-13
6822.4  5.699e-13
6823.8  5.688e-13
6825.2  5.614e-13
6826.6  5.602e-13
6828.0  5.595e-13
6829.4  5.533e-13
6830.8  5.478e-13
6832.2  5.498e-13
6833.6  5.518e-13
6835.0  5.484e-13
6836.4  5.517e-13
6837.8  5.592e-13
6839.2  5.609e-13
6840.6  5.604e-13
6842.0  5.558e-13
6843.4  5.5e-13
6844.8  5.483e-13
6846.2  5.467e-13
6847.6  5.379e-13
6849.0  5.357e-13
6850.4  5.483e-13
6851.8  5.556e-13
6853.2  5.485e-13
6854.6  5.449e-13
6856.0  5.515e-13
6857.4  5.45e-13
6858.8  5.403e-13
6860.2  5.408e-13
6861.6  5.405e-13
6863.0  5.364e-13
6864.4  5.396e-13
6865.8  5.225e-13
6867.2  4.7e-13
6868.6  4.096e-13
6870.0  3.815e-13
6871.4  3.919e-13
6872.8  4.151e-13
6874.2  4.277e-13
6875.6  4.377e-13
6877.0  4.506e-13
6878.4  4.631e-13
6879.8  4.816e-13
6881.2  5.141e-13
6882.6  5.386e-13
6884.0  5.401e-13
6885.4  5.266e-13
6886.8  4.997e-13
6888.2  4.812e-13
6889.6  4.798e-13
6891.0  4.764e-13
6892.4  4.783e-13
6893.8  4.833e-13
6895.2  4.873e-13
6896.6  4.978e-13
6898.0  5.106e-13
6899.4  5.075e-13
6900.8  4.891e-13
6902.2  4.854e-13
6903.6  4.88e-13
6905.0  4.951e-13
6906.4  5.041e-13
6907.8  5.129e-13
6909.2  5.102e-13
6910.6  5.097e-13
6912.0  5.179e-13
6913.4  5.209e-13
6914.8  5.177e-13
6916.2  5.291e-13
6917.6  5.412e-13
6919.0  5.33e-13
6920.4  5.406e-13
6921.8  5.329e-13
6923.2  5.108e-13
6924.6  5.122e-13
6926.0  5.457e-13
6927.4  5.586e-13
6928.8  5.414e-13
6930.2  5.243e-13
6931.6  5.249e-13
6933.0  5.363e-13
6934.4  5.37e-13
6935.8  5.298e-13
6937.2  5.337e-13
6938.6  5.413e-13
6940.0  5.374e-13
6941.4  5.347e-13
6942.8  5.452e-13
6944.2  5.514e-13
6945.6  5.484e-13
6947.0  5.492e-13
6948.4  5.415e-13
6949.8  5.421e-13
6951.2  5.481e-13
6952.6  5.43e-13
6954.0  5.413e-13
6955.4  5.325e-13
6956.8  5.225e-13
6958.2  5.259e-13
6959.6  5.434e-13
6961.0  5.464e-13
6962.4  5.438e-13
6963.8  5.441e-13
6965.2  5.415e-13
6966.6  5.523e-13
6968.0  5.474e-13
6969.4  5.357e-13
6970.8  5.422e-13
6972.2  5.464e-13
6973.6  5.499e-13
6975.0  5.515e-13
6976.4  5.496e-13
6977.8  5.495e-13
6979.2  5.492e-13
6980.6  5.477e-13
6982.0  5.495e-13
6983.4  5.538e-13
6984.8  5.585e-13
6986.2  5.589e-13
6987.6  5.525e-13
6989.0  5.518e-13
6990.4  5.681e-13
6991.8  5.749e-13
6993.2  5.603e-13
6994.6  5.543e-13
6996.0  5.529e-13
6997.4  5.417e-13
6998.8  5.238e-13
7000.2  5.225e-13
7001.6  5.385e-13
7003.0  5.46e-13
7004.4  5.4e-13
7005.8  5.408e-13
7007.2  5.441e-13
7008.6  5.629e-13
7010.0  5.765e-13
7011.4  5.683e-13
7012.8  5.575e-13
7014.2  5.38e-13
7015.6  5.153e-13
7017.0  5.122e-13
7018.4  5.381e-13
7019.8  5.419e-13
7021.2  5.446e-13
7022.6  5.564e-13
7024.0  5.648e-13
7025.4  5.639e-13
7026.8  5.495e-13
7028.2  5.324e-13
7029.6  5.31e-13
7031.0  5.408e-13
7032.4  5.355e-13
7033.8  5.231e-13
7035.2  5.275e-13
7036.6  5.421e-13
7038.0  5.46e-13
7039.4  5.42e-13
7040.8  5.326e-13
7042.2  5.214e-13
7043.6  5.237e-13
7045.0  5.337e-13
7046.4  5.387e-13
7047.8  5.387e-13
7049.2  5.399e-13
7050.6  5.429e-13
7052.0  5.49e-13
7053.4  5.564e-13
7054.8  5.63e-13
7056.2  5.709e-13
7057.6  5.734e-13
7059.0  5.561e-13
7060.4  5.317e-13
7061.8  5.397e-13
7063.2  5.404e-13
7064.6  5.307e-13
7066.0  5.266e-13
7067.4  5.272e-13
7068.8  5.188e-13
7070.2  5.258e-13
7071.6  5.464e-13
7073.0  5.514e-13
7074.4  5.433e-13
7075.8  5.636e-13
7077.2  5.781e-13
7078.6  5.705e-13
7080.0  5.538e-13
7081.4  5.401e-13
7082.8  5.346e-13
7084.2  5.312e-13
7085.6  5.316e-13
7087.0  5.407e-13
7088.4  5.509e-13
7089.8  5.532e-13
7091.2  5.519e-13
7092.6  5.524e-13
7094.0  5.54e-13
7095.4  5.597e-13
7096.8  5.762e-13
7098.2  5.891e-13
7099.6  5.766e-13
7101.0  5.584e-13
7102.4  5.588e-13
7103.8  5.67e-13
7105.2  5.61e-13
7106.6  5.502e-13
7108.0  5.495e-13
7109.4  5.442e-13
7110.8  5.273e-13
7112.2  5.123e-13
7113.6  5.138e-13
7115.0  5.255e-13
7116.4  5.284e-13
7117.8  5.226e-13
7119.2  5.234e-13
7120.6  5.261e-13
7122.0  5.374e-13
7123.4  5.421e-13
7124.8  5.388e-13
7126.2  5.341e-13
7127.6  5.323e-13
7129.0  5.427e-13
7130.4  5.513e-13
7131.8  5.572e-13
7133.2  5.66e-13
7134.6  5.669e-13
7136.0  5.494e-13
7137.4  5.415e-13
7138.8  5.476e-13
7140.2  5.478e-13
7141.6  5.484e-13
7143.0  5.561e-13
7144.4  5.467e-13
7145.8  5.22e-13
7147.2  5.168e-13
7148.6  5.327e-13
7150.0  5.382e-13
7151.4  5.27e-13
7152.8  5.323e-13
7154.2  5.515e-13
7155.6  5.598e-13
7157.0  5.55e-13
7158.4  5.526e-13
7159.8  5.528e-13
7161.2  5.588e-13
7162.6  5.454e-13
7164.0  5.23e-13
7165.4  5.122e-13
7166.8  5.178e-13
7168.2  5.186e-13
7169.6  5.259e-13
7171.0  5.07e-13
7172.4  4.754e-13
7173.8  4.915e-13
7175.2  5.076e-13
7176.6  4.976e-13
7178.0  4.881e-13
7179.4  4.806e-13
7180.8  4.667e-13
7182.2  4.805e-13
7183.6  4.835e-13
7185.0  4.551e-13
7186.4  4.44e-13
7187.8  4.73e-13
7189.2  4.976e-13
7190.6  4.864e-13
7192.0  4.609e-13
7193.4  4.637e-13
7194.8  4.893e-13
7196.2  4.966e-13
7197.6  4.957e-13
7199.0  4.926e-13
7200.4  4.759e-13
7201.8  4.715e-13
7203.2  4.835e-13
7204.6  4.971e-13
7206.0  5.035e-13
7207.4  5.128e-13
7208.8  5.302e-13
7210.2  5.473e-13
7211.6  5.434e-13
7213.0  5.263e-13
7214.4  5.223e-13
7215.8  5.235e-13
7217.2  5.167e-13
7218.6  5.122e-13
7220.0  5.142e-13
7221.4  5.119e-13
7222.8  5.022e-13
7224.2  5.147e-13
7225.6  5.304e-13
7227.0  5.254e-13
7228.4  5.198e-13
7229.8  5.349e-13
7231.2  5.286e-13
7232.6  5.072e-13
7234.0  4.848e-13
7235.4  4.743e-13
7236.8  4.868e-13
7238.2  5.13e-13
7239.6  4.93e-13
7241.0  4.673e-13
7242.4  4.759e-13
7243.8  4.875e-13
7245.2  4.903e-13
7246.6  4.959e-13
7248.0  5.02e-13
7249.4  5.133e-13
7250.8  5.148e-13
7252.2  4.901e-13
7253.6  4.944e-13
7255.0  5.313e-13
7256.4  5.444e-13
7257.8  5.375e-13
7259.2  5.262e-13
7260.6  5.16e-13
7262.0  5.107e-13
7263.4  5.121e-13
7264.8  5.096e-13
7266.2  5.147e-13
7267.6  5.257e-13
7269.0  5.241e-13
7270.4  5.141e-13
7271.8  5.157e-13
7273.2  5.057e-13
7274.6  5.092e-13
7276.0  4.974e-13
7277.4  4.893e-13
7278.8  5.104e-13
7280.2  5.325e-13
7281.6  5.239e-13
7283.0  5.053e-13
7284.4  5.058e-13
7285.8  5.123e-13
7287.2  5.011e-13
7288.6  4.885e-13
7290.0  4.878e-13
7291.4  4.805e-13
7292.8  4.67e-13
7294.2  4.738e-13
7295.6  4.95e-13
7297.0  5.06e-13
7298.4  5.06e-13
7299.8  5.021e-13
7301.2  4.933e-13
7302.6  4.87e-13
7304.0  4.916e-13
7305.4  5.044e-13
7306.8  5.081e-13
7308.2  4.891e-13
7309.6  4.806e-13
7311.0  4.995e-13
7312.4  5.232e-13
7313.8  5.206e-13
7315.2  5.056e-13
7316.6  4.891e-13
7318.0  4.876e-13
7319.4  4.843e-13
7320.8  4.686e-13
7322.2  4.858e-13
7323.6  4.955e-13
7325.0  4.862e-13
7326.4  4.818e-13
7327.8  4.778e-13
7329.2  4.788e-13
7330.6  5.004e-13
7332.0  5.119e-13
7333.4  5.076e-13
7334.8  5.058e-13
7336.2  5.222e-13
7337.6  5.256e-13
7339.0  5.099e-13
7340.4  5.123e-13
7341.8  5.34e-13
7343.2  5.449e-13
7344.6  5.424e-13
7346.0  5.294e-13
7347.4  5.171e-13
7348.8  5.069e-13
7350.2  4.928e-13
7351.6  4.966e-13
7353.0  5.057e-13
7354.4  4.982e-13
7355.8  4.894e-13
7357.2  4.84e-13
7358.6  4.899e-13
7360.0  5.04e-13
7361.4  5.129e-13
7362.8  5.126e-13
7364.2  5.092e-13
7365.6  5.154e-13
7367.0  5.247e-13
7368.4  5.097e-13
7369.8  4.956e-13
7371.2  4.919e-13
7372.6  4.915e-13
7374.0  4.957e-13
7375.4  4.983e-13
7376.8  5.157e-13
7378.2  5.102e-13
7379.6  4.903e-13
7381.0  4.892e-13
7382.4  4.906e-13
7383.8  4.865e-13
7385.2  4.755e-13
7386.6  4.705e-13
7388.0  4.775e-13
7389.4  4.817e-13
7390.8  4.921e-13
7392.2  5.089e-13
7393.6  5.09e-13
7395.0  4.925e-13
7396.4  4.774e-13
7397.8  4.735e-13
7399.2  4.842e-13
7400.6  4.997e-13
7402.0  5.062e-13
7403.4  5.144e-13
7404.8  5.176e-13
7406.2  4.961e-13
7407.6  4.746e-13
7409.0  4.733e-13
7410.4  4.703e-13
7411.8  4.691e-13
7413.2  4.886e-13
7414.6  4.832e-13
7416.0  4.686e-13
7417.4  4.664e-13
7418.8  4.73e-13
7420.2  4.666e-13
7421.6  4.483e-13
7423.0  4.31e-13
7424.4  4.213e-13
7425.8  4.289e-13
7427.2  4.53e-13
