# Extracted from file: jc_105.fits
#SIMPLETruefile does conform to FITS standard
#BITPIX16number of bits per data pixel
#NAXIS0number of data axes
#EXTENDTrueFITS dataset may contain extensions
#COMMENT  FITS (Flexible Image Transport System) format defined in Astronomy and
#COMMENT  Astrophysics Supplement Series v44/p363, v44/p371, v73/p359, v73/p365.
#COMMENT  Contact the NASA Science Office of Standards and Technology for the
#COMMENT  FITS Definition document #100 and other FITS information.
#ORIGINSTScI-STSDAS/TABLESTables version 1999-03-22
#FILENAMEjc_105.fitsname of file
#DESCRIP= 'Jacobi-Christenson atlas'
#DBTABLE= 'CRGRIDS'
#OBSMODE= ' '
#COMMENT  = 'The Jocobi-Christenson atlas has been extracted from'
#COMMENT  = 'the ATLAS library established at STScI by K.Horne.'
#HISTROY= 'The SDAS tables were generated from the ASCII lists in'
#HISTORY  = 'the ATLAS library. Each table was generated separatly'
#HISTORY  = 'and is in agreement with CDBS Data Design, dated'
#HISTORY  = 'February 28, 1988.'
#TARGETID= ' '
#  
#Columns WAVELENGTH FLUX
#Units  Angstroms FLAM
3510.0  1.08e-13
3511.4  9.204e-14
3512.8  7.768e-14
3514.2  8.653e-14
3515.6  9.853e-14
3517.0  8.713e-14
3518.4  8.388e-14
3519.8  8.394e-14
3521.2  9.095e-14
3522.6  8.499e-14
3524.0  6.92e-14
3525.4  8.361e-14
3526.8  8.856e-14
3528.2  8.204e-14
3529.6  7.816e-14
3531.0  8.772e-14
3532.4  9.724e-14
3533.8  1.028e-13
3535.2  1.007e-13
3536.6  9.789e-14
3538.0  9.898e-14
3539.4  9.334e-14
3540.8  9.245e-14
3542.2  1.039e-13
3543.6  8.929e-14
3545.0  8.899e-14
3546.4  9.076e-14
3547.8  8.48e-14
3549.2  7.452e-14
3550.6  6.189e-14
3552.0  8.275e-14
3553.4  9.165e-14
3554.8  9.204e-14
3556.2  9.438e-14
3557.6  9.761e-14
3559.0  1.012e-13
3560.4  1.07e-13
3561.8  9.112e-14
3563.2  7.853e-14
3564.6  7.773e-14
3566.0  6.456e-14
3567.4  5.813e-14
3568.8  6.434e-14
3570.2  6.076e-14
3571.6  6.406e-14
3573.0  6.165e-14
3574.4  5.267e-14
3575.8  4.802e-14
3577.2  4.79e-14
3578.6  4.9e-14
3580.0  5.798e-14
3581.4  7.07e-14
3582.8  6.682e-14
3584.2  5.41e-14
3585.6  5.495e-14
3587.0  6.99e-14
3588.4  8.995e-14
3589.8  8.859e-14
3591.2  7.37e-14
3592.6  7.61e-14
3594.0  9.257e-14
3595.4  9.299e-14
3596.8  8.558e-14
3598.2  9.185e-14
3599.6  9.6e-14
3601.0  8.925e-14
3602.4  7.62e-14
3603.8  6.734e-14
3605.2  7.876e-14
3606.6  8.931e-14
3608.0  8.824e-14
3609.4  9.185e-14
3610.8  8.879e-14
3612.2  8.646e-14
3613.6  1.009e-13
3615.0  9.969e-14
3616.4  7.267e-14
3617.8  7.235e-14
3619.2  8.293e-14
3620.6  8.262e-14
3622.0  7.476e-14
3623.4  7.641e-14
3624.8  9.589e-14
3626.2  1.228e-13
3627.6  1.348e-13
3629.0  1.095e-13
3630.4  9.624e-14
3631.8  1.036e-13
3633.2  1.058e-13
3634.6  9.372e-14
3636.0  8.139e-14
3637.4  8.877e-14
3638.8  1.142e-13
3640.2  1.219e-13
3641.6  1.043e-13
3643.0  9.25e-14
3644.4  9.601e-14
3645.8  9.922e-14
3647.2  9.764e-14
3648.6  8.696e-14
3650.0  9.099e-14
3651.4  1.061e-13
3652.8  1.083e-13
3654.2  1.083e-13
3655.6  1.139e-13
3657.0  1.104e-13
3658.4  1.164e-13
3659.8  1.248e-13
3661.2  1.263e-13
3662.6  1.196e-13
3664.0  9.873e-14
3665.4  9.039e-14
3666.8  9.468e-14
3668.2  9.586e-14
3669.6  1.007e-13
3671.0  1.168e-13
3672.4  1.282e-13
3673.8  1.321e-13
3675.2  1.288e-13
3676.6  1.112e-13
3678.0  9.941e-14
3679.4  1.024e-13
3680.8  1.1e-13
3682.2  1.159e-13
3683.6  1.072e-13
3685.0  9.376e-14
3686.4  8.553e-14
3687.8  9.162e-14
3689.2  1.049e-13
3690.6  1.055e-13
3692.0  1.114e-13
3693.4  1.231e-13
3694.8  1.216e-13
3696.2  1.062e-13
3697.6  9.735e-14
3699.0  1.044e-13
3700.4  1.169e-13
3701.8  1.284e-13
3703.2  1.124e-13
3704.6  8.23e-14
3706.0  7.708e-14
3707.4  8.86e-14
3708.8  1.037e-13
3710.2  1.147e-13
3711.6  1.241e-13
3713.0  1.323e-13
3714.4  1.269e-13
3715.8  1.231e-13
3717.2  1.119e-13
3718.6  8.751e-14
3720.0  7.639e-14
3721.4  8.127e-14
3722.8  8.569e-14
3724.2  8.742e-14
3725.6  8.679e-14
3727.0  7.695e-14
3728.4  7.724e-14
3729.8  8.669e-14
3731.2  8.32e-14
3732.6  6.812e-14
3734.0  5.824e-14
3735.4  6.198e-14
3736.8  7.078e-14
3738.2  8.402e-14
3739.6  9.634e-14
3741.0  9.461e-14
3742.4  9.254e-14
3743.8  8.715e-14
3745.2  7.251e-14
3746.6  6.589e-14
3748.0  6.385e-14
3749.4  7.372e-14
3750.8  9.222e-14
3752.2  1.062e-13
3753.6  1.204e-13
3755.0  1.174e-13
3756.4  1.031e-13
3757.8  9.486e-14
3759.2  8.805e-14
3760.6  7.299e-14
3762.0  7.154e-14
3763.4  7.287e-14
3764.8  7.448e-14
3766.2  8.534e-14
3767.6  1.028e-13
3769.0  1.129e-13
3770.4  1.127e-13
3771.8  1.241e-13
3773.2  1.302e-13
3774.6  1.237e-13
3776.0  1.23e-13
3777.4  1.207e-13
3778.8  1.177e-13
3780.2  1.262e-13
3781.6  1.347e-13
3783.0  1.296e-13
3784.4  1.166e-13
3785.8  1.057e-13
3787.2  1.038e-13
3788.6  9.716e-14
3790.0  9.031e-14
3791.4  9.39e-14
3792.8  9.447e-14
3794.2  9.03e-14
3795.6  8.781e-14
3797.0  8.981e-14
3798.4  9.034e-14
3799.8  9.247e-14
3801.2  1.075e-13
3802.6  1.216e-13
3804.0  1.172e-13
3805.4  1.059e-13
3806.8  1.005e-13
3808.2  1.043e-13
3809.6  1.123e-13
3811.0  1.084e-13
3812.4  9.237e-14
3813.8  8.425e-14
3815.2  8.605e-14
3816.6  9.055e-14
3818.0  8.466e-14
3819.4  6.609e-14
3820.8  6.757e-14
3822.2  6.842e-14
3823.6  6.582e-14
3825.0  6.985e-14
3826.4  7.632e-14
3827.8  8.221e-14
3829.2  8.36e-14
3830.6  7.787e-14
3832.0  7.209e-14
3833.4  7.091e-14
3834.8  8.001e-14
3836.2  8.102e-14
3837.6  7.825e-14
3839.0  7.973e-14
3840.4  7.89e-14
3841.8  8.099e-14
3843.2  8.805e-14
3844.6  9.248e-14
3846.0  9.292e-14
3847.4  8.759e-14
3848.8  7.752e-14
3850.2  8.605e-14
3851.6  9.391e-14
3853.0  9.005e-14
3854.4  8.407e-14
3855.8  8.289e-14
3857.2  7.758e-14
3858.6  7.043e-14
3860.0  7.593e-14
3861.4  8.945e-14
3862.8  8.898e-14
3864.2  8.961e-14
3865.6  9.146e-14
3867.0  9.204e-14
3868.4  9.3e-14
3869.8  9.708e-14
3871.2  9.779e-14
3872.6  9.387e-14
3874.0  9.238e-14
3875.4  9.282e-14
3876.8  9.485e-14
3878.2  9.878e-14
3879.6  9.941e-14
3881.0  9.519e-14
3882.4  9.278e-14
3883.8  9.382e-14
3885.2  9.176e-14
3886.6  8.992e-14
3888.0  1.005e-13
3889.4  1.17e-13
3890.8  1.246e-13
3892.2  1.263e-13
3893.6  1.224e-13
3895.0  1.138e-13
3896.4  1.104e-13
3897.8  1.082e-13
3899.2  1.057e-13
3900.6  1.082e-13
3902.0  1.153e-13
3903.4  1.186e-13
3904.8  1.088e-13
3906.2  1.003e-13
3907.6  1.139e-13
3909.0  1.28e-13
3910.4  1.262e-13
3911.8  1.193e-13
3913.2  1.167e-13
3914.6  1.137e-13
3916.0  1.104e-13
3917.4  1.059e-13
3918.8  9.511e-14
3920.2  8.26e-14
3921.6  8.718e-14
3923.0  9.416e-14
3924.4  8.914e-14
3925.8  7.454e-14
3927.2  6.834e-14
3928.6  6.36e-14
3930.0  6.011e-14
3931.4  5.791e-14
3932.8  5.342e-14
3934.2  5.483e-14
3935.6  6.255e-14
3937.0  7.16e-14
3938.4  8.09e-14
3939.8  7.749e-14
3941.2  7.567e-14
3942.6  8.071e-14
3944.0  8.465e-14
3945.4  8.787e-14
3946.8  9.776e-14
3948.2  1.102e-13
3949.6  1.231e-13
3951.0  1.327e-13
3952.4  1.397e-13
3953.8  1.432e-13
3955.2  1.299e-13
3956.6  1.135e-13
3958.0  1.093e-13
3959.4  9.809e-14
3960.8  8.323e-14
3962.2  7.579e-14
3963.6  7.492e-14
3965.0  7.392e-14
3966.4  7.166e-14
3967.8  6.647e-14
3969.2  6.64e-14
3970.6  7.788e-14
3972.0  8.973e-14
3973.4  9.608e-14
3974.8  1.058e-13
3976.2  1.179e-13
3977.6  1.272e-13
3979.0  1.356e-13
3980.4  1.418e-13
3981.8  1.448e-13
3983.2  1.492e-13
3984.6  1.565e-13
3986.0  1.606e-13
3987.4  1.605e-13
3988.8  1.607e-13
3990.2  1.59e-13
3991.6  1.646e-13
3993.0  1.76e-13
3994.4  1.724e-13
3995.8  1.64e-13
3997.2  1.585e-13
3998.6  1.612e-13
4000.0  1.752e-13
4001.4  1.822e-13
4002.8  1.83e-13
4004.2  1.759e-13
4005.6  1.669e-13
4007.0  1.706e-13
4008.4  1.744e-13
4009.8  1.796e-13
4011.2  1.914e-13
4012.6  1.941e-13
4014.0  1.921e-13
4015.4  1.961e-13
4016.8  2.038e-13
4018.2  1.994e-13
4019.6  1.884e-13
4021.0  1.822e-13
4022.4  1.823e-13
4023.8  1.847e-13
4025.2  1.856e-13
4026.6  1.874e-13
4028.0  1.79e-13
4029.4  1.592e-13
4030.8  1.514e-13
4032.2  1.506e-13
4033.6  1.627e-13
4035.0  1.836e-13
4036.4  2.041e-13
4037.8  2.092e-13
4039.2  2.002e-13
4040.6  1.843e-13
4042.0  1.714e-13
4043.4  1.607e-13
4044.8  1.594e-13
4046.2  1.724e-13
4047.6  1.916e-13
4049.0  2.029e-13
4050.4  2.052e-13
4051.8  1.98e-13
4053.2  1.873e-13
4054.6  1.796e-13
4056.0  1.706e-13
4057.4  1.71e-13
4058.8  1.818e-13
4060.2  1.826e-13
4061.6  1.698e-13
4063.0  1.632e-13
4064.4  1.742e-13
4065.8  1.885e-13
4067.2  1.946e-13
4068.6  1.906e-13
4070.0  1.843e-13
4071.4  1.889e-13
4072.8  1.883e-13
4074.2  1.765e-13
4075.6  1.694e-13
4077.0  1.733e-13
4078.4  1.892e-13
4079.8  2.049e-13
4081.2  2.119e-13
4082.6  2.144e-13
4084.0  2.144e-13
4085.4  2.205e-13
4086.8  2.378e-13
4088.2  2.487e-13
4089.6  2.377e-13
4091.0  2.181e-13
4092.4  2.1e-13
4093.8  2e-13
4095.2  1.959e-13
4096.6  1.93e-13
4098.0  1.821e-13
4099.4  1.692e-13
4100.8  1.7e-13
4102.2  1.836e-13
4103.6  1.943e-13
4105.0  2.03e-13
4106.4  2.136e-13
4107.8  2.127e-13
4109.2  2.008e-13
4110.6  1.916e-13
4112.0  1.939e-13
4113.4  1.954e-13
4114.8  1.907e-13
4116.2  1.902e-13
4117.6  1.94e-13
4119.0  1.98e-13
4120.4  1.985e-13
4121.8  2.059e-13
4123.2  2.173e-13
4124.6  2.195e-13
4126.0  2.089e-13
4127.4  1.984e-13
4128.8  1.882e-13
4130.2  1.802e-13
4131.6  1.751e-13
4133.0  1.808e-13
4134.4  1.958e-13
4135.8  2.059e-13
4137.2  2.089e-13
4138.6  2.111e-13
4140.0  2.021e-13
4141.4  1.816e-13
4142.8  1.668e-13
4144.2  1.72e-13
4145.6  1.902e-13
4147.0  2.015e-13
4148.4  2.004e-13
4149.8  1.979e-13
4151.2  2.008e-13
4152.6  2.04e-13
4154.0  2.043e-13
4155.4  2.035e-13
4156.8  2.095e-13
4158.2  2.229e-13
4159.6  2.358e-13
4161.0  2.405e-13
4162.4  2.341e-13
4163.8  2.207e-13
4165.2  2.123e-13
4166.6  2.116e-13
4168.0  2.088e-13
4169.4  2.004e-13
4170.8  1.861e-13
4172.2  1.755e-13
4173.6  1.803e-13
4175.0  1.908e-13
4176.4  1.985e-13
4177.8  2.047e-13
4179.2  2.098e-13
4180.6  2.123e-13
4182.0  2.147e-13
4183.4  2.202e-13
4184.8  2.248e-13
4186.2  2.203e-13
4187.6  2.06e-13
4189.0  2.046e-13
4190.4  2.112e-13
4191.8  2.214e-13
4193.2  2.256e-13
4194.6  2.152e-13
4196.0  2.019e-13
4197.4  1.872e-13
4198.8  1.778e-13
4200.2  1.768e-13
4201.6  1.826e-13
4203.0  1.923e-13
4204.4  2.031e-13
4205.8  2.157e-13
4207.2  2.311e-13
4208.6  2.365e-13
4210.0  2.274e-13
4211.4  2.095e-13
4212.8  1.978e-13
4214.2  1.906e-13
4215.6  1.906e-13
4217.0  1.976e-13
4218.4  2.06e-13
4219.8  1.996e-13
4221.2  1.788e-13
4222.6  1.55e-13
4224.0  1.328e-13
4225.4  1.158e-13
4226.8  1.166e-13
4228.2  1.378e-13
4229.6  1.597e-13
4231.0  1.718e-13
4232.4  1.768e-13
4233.8  1.815e-13
4235.2  1.892e-13
4236.6  2.002e-13
4238.0  2.09e-13
4239.4  2.176e-13
4240.8  2.302e-13
4242.2  2.45e-13
4243.6  2.491e-13
4245.0  2.406e-13
4246.4  2.302e-13
4247.8  2.179e-13
4249.2  2.1e-13
4250.6  2.061e-13
4252.0  1.973e-13
4253.4  1.885e-13
4254.8  1.915e-13
4256.2  1.971e-13
4257.6  1.945e-13
4259.0  1.937e-13
4260.4  1.992e-13
4261.8  2.122e-13
4263.2  2.305e-13
4264.6  2.362e-13
4266.0  2.311e-13
4267.4  2.263e-13
4268.8  2.141e-13
4270.2  1.906e-13
4271.6  1.725e-13
4273.0  1.683e-13
4274.4  1.708e-13
4275.8  1.883e-13
4277.2  2.121e-13
4278.6  2.23e-13
4280.0  2.214e-13
4281.4  2.179e-13
4282.8  2.138e-13
4284.2  2.106e-13
4285.6  2.055e-13
4287.0  1.885e-13
4288.4  1.719e-13
4289.8  1.694e-13
4291.2  1.823e-13
4292.6  2.055e-13
4294.0  2.191e-13
4295.4  2.188e-13
4296.8  2.059e-13
4298.2  1.838e-13
4299.6  1.67e-13
4301.0  1.63e-13
4302.4  1.727e-13
4303.8  1.885e-13
4305.2  1.824e-13
4306.6  1.636e-13
4308.0  1.609e-13
4309.4  1.755e-13
4310.8  2.015e-13
4312.2  2.219e-13
4313.6  2.306e-13
4315.0  2.544e-13
4316.4  2.656e-13
4317.8  2.689e-13
4319.2  2.682e-13
4320.6  2.509e-13
4322.0  2.348e-13
4323.4  2.229e-13
4324.8  2.202e-13
4326.2  2.259e-13
4327.6  2.491e-13
4329.0  2.751e-13
4330.4  2.848e-13
4331.8  2.882e-13
4333.2  3.057e-13
4334.6  3.032e-13
4336.0  2.728e-13
4337.4  2.349e-13
4338.8  2.123e-13
4340.2  2.165e-13
4341.6  2.344e-13
4343.0  2.535e-13
4344.4  2.673e-13
4345.8  2.67e-13
4347.2  2.724e-13
4348.6  2.775e-13
4350.0  2.626e-13
4351.4  2.438e-13
4352.8  2.367e-13
4354.2  2.467e-13
4355.6  2.655e-13
4357.0  2.732e-13
4358.4  2.646e-13
4359.8  2.602e-13
4361.2  2.72e-13
4362.6  2.856e-13
4364.0  2.893e-13
4365.4  2.868e-13
4366.8  2.824e-13
4368.2  2.772e-13
4369.6  2.765e-13
4371.0  2.779e-13
4372.4  2.709e-13
4373.8  2.563e-13
4375.2  2.563e-13
4376.6  2.701e-13
4378.0  2.738e-13
4379.4  2.747e-13
4380.8  2.57e-13
4382.2  2.196e-13
4383.6  2.026e-13
4385.0  2.297e-13
4386.4  2.508e-13
4387.8  2.572e-13
4389.2  2.559e-13
4390.6  2.598e-13
4392.0  2.726e-13
4393.4  2.704e-13
4394.8  2.61e-13
4396.2  2.671e-13
4397.6  2.728e-13
4399.0  2.688e-13
4400.4  2.61e-13
4401.8  2.529e-13
4403.2  2.362e-13
4404.6  2.226e-13
4406.0  2.188e-13
4407.4  2.326e-13
4408.8  2.655e-13
4410.2  2.885e-13
4411.6  2.968e-13
4413.0  2.892e-13
4414.4  2.685e-13
4415.8  2.69e-13
4417.2  2.956e-13
4418.6  3.104e-13
4420.0  3.008e-13
4421.4  2.753e-13
4422.8  2.581e-13
4424.2  2.521e-13
4425.6  2.511e-13
4427.0  2.521e-13
4428.4  2.552e-13
4429.8  2.545e-13
4431.2  2.52e-13
4432.6  2.378e-13
4434.0  2.207e-13
4435.4  2.326e-13
4436.8  2.516e-13
4438.2  2.612e-13
4439.6  2.617e-13
4441.0  2.556e-13
4442.4  2.542e-13
4443.8  2.714e-13
4445.2  2.938e-13
4446.6  2.967e-13
4448.0  2.907e-13
4449.4  2.919e-13
4450.8  2.879e-13
4452.2  2.705e-13
4453.6  2.538e-13
4455.0  2.547e-13
4456.4  2.538e-13
4457.8  2.351e-13
4459.2  2.24e-13
4460.6  2.287e-13
4462.0  2.355e-13
4463.4  2.367e-13
4464.8  2.321e-13
4466.2  2.292e-13
4467.6  2.357e-13
4469.0  2.408e-13
4470.4  2.446e-13
4471.8  2.593e-13
4473.2  2.701e-13
4474.6  2.82e-13
4476.0  2.914e-13
4477.4  2.871e-13
4478.8  2.763e-13
4480.2  2.644e-13
4481.6  2.632e-13
4483.0  2.779e-13
4484.4  2.93e-13
4485.8  2.834e-13
4487.2  2.676e-13
4488.6  2.688e-13
4490.0  2.833e-13
4491.4  2.953e-13
4492.8  2.866e-13
4494.2  2.751e-13
4495.6  2.791e-13
4497.0  2.988e-13
4498.4  2.975e-13
4499.8  2.978e-13
4501.2  3.089e-13
4502.6  3.132e-13
4504.0  2.873e-13
4505.4  2.673e-13
4506.8  2.738e-13
4508.2  2.853e-13
4509.6  2.816e-13
4511.0  2.776e-13
4512.4  2.755e-13
4513.8  2.843e-13
4515.2  2.951e-13
4516.6  2.965e-13
4518.0  2.968e-13
4519.4  2.961e-13
4520.8  2.951e-13
4522.2  2.908e-13
4523.6  2.83e-13
4525.0  2.697e-13
4526.4  2.534e-13
4527.8  2.546e-13
4529.2  2.668e-13
4530.6  2.635e-13
4532.0  2.392e-13
4533.4  2.355e-13
4534.8  2.668e-13
4536.2  2.989e-13
4537.6  3.122e-13
4539.0  3.114e-13
4540.4  3.044e-13
4541.8  2.992e-13
4543.2  2.981e-13
4544.6  2.92e-13
4546.0  2.82e-13
4547.4  2.699e-13
4548.8  2.663e-13
4550.2  2.717e-13
4551.6  2.696e-13
4553.0  2.752e-13
4554.4  3.013e-13
4555.8  3.232e-13
4557.2  3.299e-13
4558.6  3.411e-13
4560.0  3.396e-13
4561.4  3.214e-13
4562.8  3.314e-13
4564.2  3.543e-13
4565.6  3.591e-13
4567.0  3.556e-13
4568.4  3.476e-13
4569.8  3.326e-13
4571.2  3.405e-13
4572.6  3.5e-13
4574.0  3.518e-13
4575.4  3.445e-13
4576.8  3.328e-13
4578.2  3.219e-13
4579.6  3.217e-13
4581.0  3.101e-13
4582.4  2.723e-13
4583.8  2.376e-13
4585.2  2.405e-13
4586.6  2.458e-13
4588.0  2.459e-13
4589.4  2.429e-13
4590.8  2.417e-13
4592.2  2.423e-13
4593.6  2.436e-13
4595.0  2.512e-13
4596.4  2.52e-13
4597.8  2.513e-13
4599.2  2.689e-13
4600.6  2.733e-13
4602.0  2.759e-13
4603.4  2.728e-13
4604.8  2.735e-13
4606.2  2.925e-13
4607.6  3.172e-13
4609.0  3.209e-13
4610.4  3.131e-13
4611.8  3.188e-13
4613.2  3.446e-13
4614.6  3.554e-13
4616.0  3.411e-13
4617.4  3.291e-13
4618.8  3.293e-13
4620.2  3.241e-13
4621.6  3.127e-13
4623.0  2.91e-13
4624.4  2.737e-13
4625.8  2.632e-13
4627.2  2.478e-13
4628.6  2.463e-13
4630.0  2.482e-13
4631.4  2.465e-13
4632.8  2.424e-13
4634.2  2.342e-13
4635.6  2.292e-13
4637.0  2.229e-13
4638.4  2.254e-13
4639.8  2.41e-13
4641.2  2.526e-13
4642.6  2.528e-13
4644.0  2.442e-13
4645.4  2.475e-13
4646.8  2.535e-13
4648.2  2.807e-13
4649.6  3.415e-13
4651.0  3.256e-13
4652.4  2.749e-13
4653.8  2.908e-13
4655.2  3.056e-13
4656.6  3.109e-13
4658.0  3.086e-13
4659.4  3.085e-13
4660.8  3.142e-13
4662.2  3.131e-13
4663.6  2.953e-13
4665.0  2.726e-13
4666.4  2.626e-13
4667.8  2.585e-13
4669.2  2.489e-13
4670.6  2.492e-13
4672.0  2.557e-13
4673.4  2.563e-13
4674.8  2.603e-13
4676.2  2.665e-13
4677.6  2.557e-13
4679.0  2.43e-13
4680.4  2.543e-13
4681.8  2.783e-13
4683.2  2.863e-13
4684.6  2.88e-13
4686.0  2.919e-13
4687.4  2.981e-13
4688.8  3.049e-13
4690.2  3.044e-13
4691.6  3.12e-13
4693.0  3.297e-13
4694.4  3.368e-13
4695.8  3.297e-13
4697.2  3.19e-13
4698.6  3.188e-13
4700.0  3.333e-13
4701.4  3.447e-13
4702.8  3.432e-13
4704.2  3.246e-13
4705.6  3.062e-13
4707.0  3.047e-13
4708.4  3.132e-13
4709.8  3.295e-13
4711.2  3.317e-13
4712.6  3.134e-13
4714.0  2.897e-13
4715.4  2.878e-13
4716.8  2.964e-13
4718.2  3.034e-13
4719.6  3.138e-13
4721.0  3.173e-13
4722.4  3.124e-13
4723.8  3.097e-13
4725.2  3.079e-13
4726.6  3.13e-13
4728.0  3.228e-13
4729.4  3.275e-13
4730.8  3.286e-13
4732.2  3.316e-13
4733.6  3.386e-13
4735.0  3.401e-13
4736.4  3.325e-13
4737.8  3.318e-13
4739.2  3.341e-13
4740.6  3.319e-13
4742.0  3.384e-13
4743.4  3.516e-13
4744.8  3.651e-13
4746.2  3.78e-13
4747.6  3.863e-13
4749.0  3.946e-13
4750.4  4.047e-13
4751.8  4.021e-13
4753.2  3.983e-13
4754.6  4.015e-13
4756.0  3.783e-13
4757.4  3.496e-13
4758.8  3.185e-13
4760.2  2.715e-13
4761.6  2.301e-13
4763.0  2.126e-13
4764.4  2.065e-13
4765.8  2.01e-13
4767.2  2.018e-13
4768.6  2.128e-13
4770.0  2.191e-13
4771.4  2.197e-13
4772.8  2.216e-13
4774.2  2.349e-13
4775.6  2.55e-13
4777.0  2.631e-13
4778.4  2.531e-13
4779.8  2.394e-13
4781.2  2.358e-13
4782.6  2.356e-13
4784.0  2.424e-13
4785.4  2.492e-13
4786.8  2.65e-13
4788.2  2.824e-13
4789.6  2.843e-13
4791.0  2.879e-13
4792.4  2.94e-13
4793.8  2.943e-13
4795.2  2.86e-13
4796.6  2.878e-13
4798.0  2.819e-13
4799.4  2.812e-13
4800.8  3.02e-13
4802.2  3.143e-13
4803.6  2.915e-13
4805.0  2.683e-13
4806.4  2.52e-13
4807.8  2.372e-13
4809.2  2.253e-13
4810.6  2.204e-13
4812.0  2.292e-13
4813.4  2.305e-13
4814.8  2.301e-13
4816.2  2.452e-13
4817.6  2.594e-13
4819.0  2.754e-13
4820.4  2.933e-13
4821.8  2.985e-13
4823.2  2.885e-13
4824.6  2.876e-13
4826.0  2.882e-13
4827.4  2.804e-13
4828.8  2.766e-13
4830.2  2.728e-13
4831.6  2.894e-13
4833.0  3.096e-13
4834.4  3.282e-13
4835.8  3.367e-13
4837.2  3.347e-13
4838.6  3.256e-13
4840.0  3.166e-13
4841.4  3.118e-13
4842.8  3.112e-13
4844.2  3.003e-13
4845.6  2.851e-13
4847.0  2.694e-13
4848.4  2.588e-13
4849.8  2.596e-13
4851.2  2.657e-13
4852.6  2.722e-13
4854.0  2.753e-13
4855.4  2.746e-13
4856.8  2.73e-13
4858.2  2.666e-13
4859.6  2.63e-13
4861.0  2.755e-13
4862.4  2.916e-13
4863.8  3.018e-13
4865.2  3.065e-13
4866.6  3.119e-13
4868.0  3.193e-13
4869.4  3.284e-13
4870.8  3.417e-13
4872.2  3.484e-13
4873.6  3.499e-13
4875.0  3.473e-13
4876.4  3.412e-13
4877.8  3.475e-13
4879.2  3.577e-13
4880.6  3.662e-13
4882.0  3.712e-13
4883.4  3.699e-13
4884.8  3.755e-13
4886.2  3.879e-13
4887.6  4.027e-13
4889.0  4.042e-13
4890.4  4.106e-13
4891.8  4.222e-13
4893.2  4.273e-13
4894.6  4.201e-13
4896.0  4.235e-13
4897.4  4.336e-13
4898.8  4.357e-13
4900.2  4.348e-13
4901.6  4.392e-13
4903.0  4.596e-13
4904.4  4.88e-13
4905.8  4.917e-13
4907.2  4.888e-13
4908.6  4.927e-13
4910.0  5.029e-13
4911.4  5.191e-13
4912.8  5.312e-13
4914.2  5.385e-13
4915.6  5.36e-13
4917.0  5.27e-13
4918.4  5.156e-13
4919.8  5.072e-13
4921.2  5.187e-13
4922.6  5.396e-13
4924.0  5.645e-13
4925.4  5.989e-13
4926.8  6.297e-13
4928.2  6.501e-13
4929.6  6.643e-13
4931.0  6.628e-13
4932.4  6.477e-13
4933.8  6.423e-13
4935.2  6.441e-13
4936.6  6.402e-13
4938.0  6.377e-13
4939.4  6.429e-13
4940.8  6.567e-13
4942.2  6.778e-13
4943.6  7.027e-13
4945.0  7.221e-13
4946.4  7.232e-13
4947.8  7.246e-13
4949.2  7.463e-13
4950.6  7.328e-13
4952.0  6.345e-13
4953.4  4.71e-13
4954.8  3.216e-13
4956.2  2.251e-13
4957.6  1.839e-13
4959.0  1.719e-13
4960.4  1.703e-13
4961.8  1.696e-13
4963.2  1.741e-13
4964.6  1.833e-13
4966.0  1.955e-13
4967.4  2.08e-13
4968.8  2.333e-13
4970.2  2.384e-13
4971.6  2.341e-13
4973.0  2.317e-13
4974.4  2.351e-13
4975.8  2.42e-13
4977.2  2.448e-13
4978.6  2.451e-13
4980.0  2.367e-13
4981.4  2.334e-13
4982.8  2.446e-13
4984.2  2.64e-13
4985.6  2.831e-13
4987.0  2.951e-13
4988.4  2.95e-13
4989.8  2.927e-13
4991.2  2.937e-13
4992.6  2.961e-13
4994.0  2.98e-13
4995.4  3.004e-13
4996.8  2.954e-13
4998.2  2.699e-13
4999.6  2.406e-13
5001.0  2.25e-13
5002.4  2.168e-13
5003.8  2.096e-13
5005.2  2.069e-13
5006.6  2.123e-13
5008.0  2.219e-13
5009.4  2.287e-13
5010.8  2.265e-13
5012.2  2.18e-13
5013.6  2.187e-13
5015.0  2.363e-13
5016.4  2.558e-13
5017.8  2.59e-13
5019.2  2.598e-13
5020.6  2.609e-13
5022.0  2.586e-13
5023.4  2.659e-13
5024.8  2.773e-13
5026.2  2.941e-13
5027.6  3.092e-13
5029.0  3.204e-13
5030.4  3.272e-13
5031.8  3.353e-13
5033.2  3.446e-13
5034.6  3.453e-13
5036.0  3.475e-13
5037.4  3.52e-13
5038.8  3.521e-13
5040.2  3.526e-13
5041.6  3.682e-13
5043.0  4.029e-13
5044.4  4.322e-13
5045.8  4.43e-13
5047.2  4.328e-13
5048.6  4.09e-13
5050.0  3.921e-13
5051.4  3.871e-13
5052.8  3.942e-13
5054.2  4.091e-13
5055.6  4.28e-13
5057.0  4.54e-13
5058.4  4.702e-13
5059.8  4.718e-13
5061.2  4.741e-13
5062.6  4.716e-13
5064.0  4.59e-13
5065.4  4.473e-13
5066.8  4.573e-13
5068.2  4.855e-13
5069.6  5.008e-13
5071.0  5.039e-13
5072.4  5.092e-13
5073.8  5.213e-13
5075.2  5.296e-13
5076.6  5.306e-13
5078.0  5.198e-13
5079.4  5e-13
5080.8  4.893e-13
5082.2  5.031e-13
5083.6  5.173e-13
5085.0  5.426e-13
5086.4  5.567e-13
5087.8  5.602e-13
5089.2  5.589e-13
5090.6  5.628e-13
5092.0  5.903e-13
5093.4  5.969e-13
5094.8  5.913e-13
5096.2  5.758e-13
5097.6  5.7e-13
5099.0  5.752e-13
5100.4  5.908e-13
5101.8  5.992e-13
5103.2  6.016e-13
5104.6  5.979e-13
5106.0  5.899e-13
5107.4  5.826e-13
5108.8  5.884e-13
5110.2  5.973e-13
5111.6  6.119e-13
5113.0  6.386e-13
5114.4  6.71e-13
5115.8  7.031e-13
5117.2  7.119e-13
5118.6  7.018e-13
5120.0  6.868e-13
5121.4  6.732e-13
5122.8  6.618e-13
5124.2  6.531e-13
5125.6  6.513e-13
5127.0  6.521e-13
5128.4  6.691e-13
5129.8  7.086e-13
5131.2  7.416e-13
5132.6  7.443e-13
5134.0  7.485e-13
5135.4  7.423e-13
5136.8  7.203e-13
5138.2  6.912e-13
5139.6  7.009e-13
5141.0  7.056e-13
5142.4  6.894e-13
5143.8  6.685e-13
5145.2  6.659e-13
5146.6  6.712e-13
5148.0  6.791e-13
5149.4  6.647e-13
5150.8  6.505e-13
5152.2  6.472e-13
5153.6  6.891e-13
5155.0  7.615e-13
5156.4  7.984e-13
5157.8  8.168e-13
5159.2  8.271e-13
5160.6  8.251e-13
5162.0  8.128e-13
5163.4  7.229e-13
5164.8  5.625e-13
5166.2  3.871e-13
5167.6  2.569e-13
5169.0  2.052e-13
5170.4  1.893e-13
5171.8  1.844e-13
5173.2  1.885e-13
5174.6  1.964e-13
5176.0  2.099e-13
5177.4  2.204e-13
5178.8  2.264e-13
5180.2  2.301e-13
5181.6  2.313e-13
5183.0  2.411e-13
5184.4  2.559e-13
5185.8  2.684e-13
5187.2  2.804e-13
5188.6  2.888e-13
5190.0  2.95e-13
5191.4  2.985e-13
5192.8  3.053e-13
5194.2  3.251e-13
5195.6  3.479e-13
5197.0  3.634e-13
5198.4  3.63e-13
5199.8  3.506e-13
5201.2  3.332e-13
5202.6  3.105e-13
5204.0  2.913e-13
5205.4  2.968e-13
5206.8  3.056e-13
5208.2  3.146e-13
5209.6  3.282e-13
5211.0  3.572e-13
5212.4  3.816e-13
5213.8  3.878e-13
5215.2  3.96e-13
5216.6  4.142e-13
5218.0  4.182e-13
5219.4  4.317e-13
5220.8  4.369e-13
5222.2  4.292e-13
5223.6  4.149e-13
5225.0  4.111e-13
5226.4  4.494e-13
5227.8  4.913e-13
5229.2  5.237e-13
5230.6  5.447e-13
5232.0  5.5e-13
5233.4  5.496e-13
5234.8  5.467e-13
5236.2  5.372e-13
5237.6  5.04e-13
5239.0  4.609e-13
5240.4  4.44e-13
5241.8  4.445e-13
5243.2  4.415e-13
5244.6  4.237e-13
5246.0  4.098e-13
5247.4  4.129e-13
5248.8  4.24e-13
5250.2  4.417e-13
5251.6  4.633e-13
5253.0  4.782e-13
5254.4  4.895e-13
5255.8  5.124e-13
5257.2  5.338e-13
5258.6  5.323e-13
5260.0  5.006e-13
5261.4  4.748e-13
5262.8  4.594e-13
5264.2  4.474e-13
5265.6  4.338e-13
5267.0  4.373e-13
5268.4  4.323e-13
5269.8  4.565e-13
5271.2  5.013e-13
5272.6  5.356e-13
5274.0  5.485e-13
5275.4  5.627e-13
5276.8  5.703e-13
5278.2  5.719e-13
5279.6  5.722e-13
5281.0  5.765e-13
5282.4  5.929e-13
5283.8  6.207e-13
5285.2  6.423e-13
5286.6  6.477e-13
5288.0  6.51e-13
5289.4  6.585e-13
5290.8  6.725e-13
5292.2  6.859e-13
5293.6  6.755e-13
5295.0  6.505e-13
5296.4  6.315e-13
5297.8  6.418e-13
5299.2  6.689e-13
5300.6  6.895e-13
5302.0  7.055e-13
5303.4  7.196e-13
5304.8  7.046e-13
5306.2  6.702e-13
5307.6  6.396e-13
5309.0  6.149e-13
5310.4  6.04e-13
5311.8  6.041e-13
5313.2  6.129e-13
5314.6  6.308e-13
5316.0  6.358e-13
5317.4  6.31e-13
5318.8  6.339e-13
5320.2  6.339e-13
5321.6  6.303e-13
5323.0  6.246e-13
5324.4  6.105e-13
5325.8  5.772e-13
5327.2  5.566e-13
5328.6  5.658e-13
5330.0  6.076e-13
5331.4  6.195e-13
5332.8  6.391e-13
5334.2  6.506e-13
5335.6  6.479e-13
5337.0  6.439e-13
5338.4  6.316e-13
5339.8  6.302e-13
5341.2  6.394e-13
5342.6  6.599e-13
5344.0  6.679e-13
5345.4  6.735e-13
5346.8  6.825e-13
5348.2  7.008e-13
5349.6  7.3e-13
5351.0  7.623e-13
5352.4  7.789e-13
5353.8  7.74e-13
5355.2  7.402e-13
5356.6  6.941e-13
5358.0  6.568e-13
5359.4  6.388e-13
5360.8  6.386e-13
5362.2  6.309e-13
5363.6  6.249e-13
5365.0  6.22e-13
5366.4  6.306e-13
5367.8  6.198e-13
5369.2  6.039e-13
5370.6  6.138e-13
5372.0  6.358e-13
5373.4  6.644e-13
5374.8  6.823e-13
5376.2  6.931e-13
5377.6  7.131e-13
5379.0  7.227e-13
5380.4  7.221e-13
5381.8  7.226e-13
5383.2  7.165e-13
5384.6  7.154e-13
5386.0  7.192e-13
5387.4  7.005e-13
5388.8  6.872e-13
5390.2  6.812e-13
5391.6  6.819e-13
5393.0  6.729e-13
5394.4  6.566e-13
5395.8  6.598e-13
5397.2  6.944e-13
5398.6  7.495e-13
5400.0  7.632e-13
5401.4  7.554e-13
5402.8  7.285e-13
5404.2  6.888e-13
5405.6  6.685e-13
5407.0  6.555e-13
5408.4  6.545e-13
5409.8  6.749e-13
5411.2  7.052e-13
5412.6  7.293e-13
5414.0  7.443e-13
5415.4  7.657e-13
5416.8  7.86e-13
5418.2  7.923e-13
5419.6  7.933e-13
5421.0  7.83e-13
5422.4  7.765e-13
5423.8  7.726e-13
5425.2  7.667e-13
5426.6  7.617e-13
5428.0  7.403e-13
5429.4  7.181e-13
5430.8  7.049e-13
5432.2  6.895e-13
5433.6  6.961e-13
5435.0  7.254e-13
5436.4  7.631e-13
5437.8  8.072e-13
5439.2  8.514e-13
5440.6  8.823e-13
5442.0  8.782e-13
5443.4  8.254e-13
5444.8  7.209e-13
5446.2  5.815e-13
5447.6  4.596e-13
5449.0  3.94e-13
5450.4  3.629e-13
5451.8  3.49e-13
5453.2  3.395e-13
5454.6  3.412e-13
5456.0  3.461e-13
5457.4  3.523e-13
5458.8  3.613e-13
5460.2  3.849e-13
5461.6  4.093e-13
5463.0  4.265e-13
5464.4  4.291e-13
5465.8  4.299e-13
5467.2  4.3e-13
5468.6  4.351e-13
5470.0  4.346e-13
5471.4  4.372e-13
5472.8  4.438e-13
5474.2  4.504e-13
5475.6  4.581e-13
5477.0  4.665e-13
5478.4  4.725e-13
5479.8  4.789e-13
5481.2  4.918e-13
5482.6  5.175e-13
5484.0  5.278e-13
5485.4  5.254e-13
5486.8  5.25e-13
5488.2  5.182e-13
5489.6  5.131e-13
5491.0  5.191e-13
5492.4  5.29e-13
5493.8  5.336e-13
5495.2  5.097e-13
5496.6  4.719e-13
5498.0  4.379e-13
5499.4  4.234e-13
5500.8  4.273e-13
5502.2  4.326e-13
5503.6  4.367e-13
5505.0  4.357e-13
5506.4  4.38e-13
5507.8  4.476e-13
5509.2  4.6e-13
5510.6  4.656e-13
5512.0  4.612e-13
5513.4  4.675e-13
5514.8  4.862e-13
5516.2  5.111e-13
5517.6  5.415e-13
5519.0  5.564e-13
5520.4  5.586e-13
5521.8  5.542e-13
5523.2  5.385e-13
5524.6  5.301e-13
5526.0  5.248e-13
5527.4  5.27e-13
5528.8  5.309e-13
5530.2  5.406e-13
5531.6  5.422e-13
5533.0  5.484e-13
5534.4  5.592e-13
5535.8  5.852e-13
5537.2  5.868e-13
5538.6  5.937e-13
5540.0  6.027e-13
5541.4  6.114e-13
5542.8  6.135e-13
5544.2  6.092e-13
5545.6  6.048e-13
5547.0  6.14e-13
5548.4  6.215e-13
5549.8  6.187e-13
5551.2  6.088e-13
5552.6  6.001e-13
5554.0  5.96e-13
5555.4  5.898e-13
5556.8  5.843e-13
5558.2  5.823e-13
5559.6  5.769e-13
5561.0  5.781e-13
5562.4  5.854e-13
5563.8  5.899e-13
5565.2  5.87e-13
5566.6  5.798e-13
5568.0  5.739e-13
5569.4  5.659e-13
5570.8  5.549e-13
5572.2  5.44e-13
5573.6  5.42e-13
5575.0  5.476e-13
5576.4  5.582e-13
5577.8  5.717e-13
5579.2  5.748e-13
5580.6  5.731e-13
5582.0  5.672e-13
5583.4  5.616e-13
5584.8  5.665e-13
5586.2  5.673e-13
5587.6  5.65e-13
5589.0  5.673e-13
5590.4  5.604e-13
5591.8  5.479e-13
5593.2  5.394e-13
5594.6  5.323e-13
5596.0  5.166e-13
5597.4  4.691e-13
5598.8  4.36e-13
5600.2  4.292e-13
5601.6  4.468e-13
5603.0  4.482e-13
5604.4  4.412e-13
5605.8  4.322e-13
5607.2  4.363e-13
5608.6  4.408e-13
5610.0  4.509e-13
5611.4  4.601e-13
5612.8  4.605e-13
5614.2  4.526e-13
5615.6  4.399e-13
5617.0  4.278e-13
5618.4  4.202e-13
5619.8  4.19e-13
5621.2  4.233e-13
5622.6  4.308e-13
5624.0  4.339e-13
5625.4  4.334e-13
5626.8  4.341e-13
5628.2  4.271e-13
5629.6  4.171e-13
5631.0  4.148e-13
5632.4  4.229e-13
5633.8  4.35e-13
5635.2  4.374e-13
5636.6  4.384e-13
5638.0  4.366e-13
5639.4  4.285e-13
5640.8  4.296e-13
5642.2  4.328e-13
5643.6  4.411e-13
5645.0  4.561e-13
5646.4  4.677e-13
5647.8  4.748e-13
5649.2  4.858e-13
5650.6  4.977e-13
5652.0  5.182e-13
5653.4  5.214e-13
5654.8  5.205e-13
5656.2  5.212e-13
5657.6  5.135e-13
5659.0  5.126e-13
5660.4  5.089e-13
5661.8  4.98e-13
5663.2  4.917e-13
5664.6  4.802e-13
5666.0  4.8e-13
5667.4  4.778e-13
5668.8  4.658e-13
5670.2  4.482e-13
5671.6  4.56e-13
5673.0  4.728e-13
5674.4  4.863e-13
5675.8  4.939e-13
5677.2  4.996e-13
5678.6  5.094e-13
5680.0  5.211e-13
5681.4  5.364e-13
5682.8  5.493e-13
5684.2  5.557e-13
5685.6  5.539e-13
5687.0  5.461e-13
5688.4  5.559e-13
5689.8  5.68e-13
5691.2  5.692e-13
5692.6  5.739e-13
5694.0  5.695e-13
5695.4  5.637e-13
5696.8  5.662e-13
5698.2  5.64e-13
5699.6  5.657e-13
5701.0  5.689e-13
5702.4  5.712e-13
5703.8  5.885e-13
5705.2  6.111e-13
5706.6  6.2e-13
5708.0  6.177e-13
5709.4  6.13e-13
5710.8  6.141e-13
5712.2  6.151e-13
5713.6  6.065e-13
5715.0  6.074e-13
5716.4  6.04e-13
5717.8  5.842e-13
5719.2  5.687e-13
5720.6  5.768e-13
5722.0  6.047e-13
5723.4  6.071e-13
5724.8  6.053e-13
5726.2  6.022e-13
5727.6  5.863e-13
5729.0  6.108e-13
5730.4  6.299e-13
5731.8  6.432e-13
5733.2  6.544e-13
5734.6  6.514e-13
5736.0  6.39e-13
5737.4  6.353e-13
5738.8  6.325e-13
5740.2  6.451e-13
5741.6  6.589e-13
5743.0  6.709e-13
5744.4  6.838e-13
5745.8  6.959e-13
5747.2  7.121e-13
5748.6  7.289e-13
5750.0  7.361e-13
5751.4  7.387e-13
5752.8  7.406e-13
5754.2  7.404e-13
5755.6  7.321e-13
5757.0  7.112e-13
5758.4  6.783e-13
5759.8  6.284e-13
5761.2  5.894e-13
5762.6  5.796e-13
5764.0  5.743e-13
5765.4  5.723e-13
5766.8  5.72e-13
5768.2  5.777e-13
5769.6  5.906e-13
5771.0  6.031e-13
5772.4  6.171e-13
5773.8  6.285e-13
5775.2  6.227e-13
5776.6  6.243e-13
5778.0  6.333e-13
5779.4  6.367e-13
5780.8  6.43e-13
5782.2  6.507e-13
5783.6  6.56e-13
5785.0  6.591e-13
5786.4  6.602e-13
5787.8  6.64e-13
5789.2  6.719e-13
5790.6  6.822e-13
5792.0  7.111e-13
5793.4  7.4e-13
5794.8  7.703e-13
5796.2  7.758e-13
5797.6  7.785e-13
5799.0  7.902e-13
5800.4  7.957e-13
5801.8  8.085e-13
5803.2  8.105e-13
5804.6  8.077e-13
5806.0  8.031e-13
5807.4  7.859e-13
5808.8  7.456e-13
5810.2  6.903e-13
5811.6  6.452e-13
5813.0  6.186e-13
5814.4  6.025e-13
5815.8  5.951e-13
5817.2  5.796e-13
5818.6  5.689e-13
5820.0  5.77e-13
5821.4  5.834e-13
5822.8  5.85e-13
5824.2  5.957e-13
5825.6  6.159e-13
5827.0  6.243e-13
5828.4  6.301e-13
5829.8  6.406e-13
5831.2  6.51e-13
5832.6  6.642e-13
5834.0  6.735e-13
5835.4  6.702e-13
5836.8  6.472e-13
5838.2  6.232e-13
5839.6  6.241e-13
5841.0  6.39e-13
5842.4  6.443e-13
5843.8  6.3e-13
5845.2  5.932e-13
5846.6  5.303e-13
5848.0  4.896e-13
5849.4  4.623e-13
5850.8  4.488e-13
5852.2  4.468e-13
5853.6  4.487e-13
5855.0  4.535e-13
5856.4  4.641e-13
5857.8  4.667e-13
5859.2  4.574e-13
5860.6  4.412e-13
5862.0  4.26e-13
5863.4  4.301e-13
5864.8  4.356e-13
5866.2  4.365e-13
5867.6  4.421e-13
5869.0  4.412e-13
5870.4  4.233e-13
5871.8  4.042e-13
5873.2  4.001e-13
5874.6  3.908e-13
5876.0  3.891e-13
5877.4  3.995e-13
5878.8  4.041e-13
5880.2  4.047e-13
5881.6  4.06e-13
5883.0  4.079e-13
5884.4  4.091e-13
5885.8  3.98e-13
5887.2  3.732e-13
5888.6  3.563e-13
5890.0  3.695e-13
5891.4  3.986e-13
5892.8  3.921e-13
5894.2  3.666e-13
5895.6  3.553e-13
5897.0  3.5e-13
5898.4  3.484e-13
5899.8  3.635e-13
5901.2  3.689e-13
5902.6  3.601e-13
5904.0  3.495e-13
5905.4  3.498e-13
5906.8  3.546e-13
5908.2  3.511e-13
5909.6  3.516e-13
5911.0  3.555e-13
5912.4  3.693e-13
5913.8  3.852e-13
5915.2  3.912e-13
5916.6  3.886e-13
5918.0  3.794e-13
5919.4  3.752e-13
5920.8  3.782e-13
5922.2  3.798e-13
5923.6  3.802e-13
5925.0  3.837e-13
5926.4  3.88e-13
5927.8  3.941e-13
5929.2  3.956e-13
5930.6  3.92e-13
5932.0  3.997e-13
5933.4  4.159e-13
5934.8  4.292e-13
5936.2  4.346e-13
5937.6  4.314e-13
5939.0  4.335e-13
5940.4  4.36e-13
5941.8  4.348e-13
5943.2  4.402e-13
5944.6  4.366e-13
5946.0  4.222e-13
5947.4  4.139e-13
5948.8  4.126e-13
5950.2  4.168e-13
5951.6  4.251e-13
5953.0  4.242e-13
5954.4  4.113e-13
5955.8  4.086e-13
5957.2  4.119e-13
5958.6  4.198e-13
5960.0  4.334e-13
5961.4  4.464e-13
5962.8  4.4e-13
5964.2  4.382e-13
5965.6  4.425e-13
5967.0  4.507e-13
5968.4  4.621e-13
5969.8  4.747e-13
5971.2  4.79e-13
5972.6  4.787e-13
5974.0  4.795e-13
5975.4  4.759e-13
5976.8  4.629e-13
5978.2  4.611e-13
5979.6  4.86e-13
5981.0  4.987e-13
5982.4  5.063e-13
5983.8  5.091e-13
5985.2  5.233e-13
5986.6  5.241e-13
5988.0  5.299e-13
5989.4  5.441e-13
5990.8  5.64e-13
5992.2  5.838e-13
5993.6  5.857e-13
5995.0  5.831e-13
5996.4  5.731e-13
5997.8  5.585e-13
5999.2  5.492e-13
6000.6  5.441e-13
6002.0  5.5e-13
6003.4  5.469e-13
6004.8  5.37e-13
6006.2  5.37e-13
6007.6  5.436e-13
6009.0  5.512e-13
6010.4  5.595e-13
6011.8  5.671e-13
6013.2  5.738e-13
6014.6  5.802e-13
6016.0  5.851e-13
6017.4  5.959e-13
6018.8  5.967e-13
6020.2  5.94e-13
6021.6  6.043e-13
6023.0  6.124e-13
6024.4  6.211e-13
6025.8  6.295e-13
6027.2  6.369e-13
6028.6  6.322e-13
6030.0  6.355e-13
6031.4  6.409e-13
6032.8  6.335e-13
6034.2  6.232e-13
6035.6  5.953e-13
6037.0  6.12e-13
6038.4  6.321e-13
6039.8  6.447e-13
6041.2  6.557e-13
6042.6  6.645e-13
6044.0  6.815e-13
6045.4  6.986e-13
6046.8  7.04e-13
6048.2  6.977e-13
6049.6  7.218e-13
6051.0  7.18e-13
6052.4  7.054e-13
6053.8  6.982e-13
6055.2  6.986e-13
6056.6  6.956e-13
6058.0  6.909e-13
6059.4  6.993e-13
6060.8  7.061e-13
6062.2  6.857e-13
6063.6  6.633e-13
6065.0  6.704e-13
6066.4  7.042e-13
6067.8  7.295e-13
6069.2  7.365e-13
6070.6  7.383e-13
6072.0  7.372e-13
6073.4  7.419e-13
6074.8  7.467e-13
6076.2  7.29e-13
6077.6  7.108e-13
6079.0  7.009e-13
6080.4  7.01e-13
6081.8  7.074e-13
6083.2  7.129e-13
6084.6  7.281e-13
6086.0  7.503e-13
6087.4  7.505e-13
6088.8  7.439e-13
6090.2  7.558e-13
6091.6  7.698e-13
6093.0  7.84e-13
6094.4  7.924e-13
6095.8  8.046e-13
6097.2  8.236e-13
6098.6  8.273e-13
6100.0  7.996e-13
6101.4  7.689e-13
6102.8  7.646e-13
6104.2  7.798e-13
6105.6  8.033e-13
6107.0  8.251e-13
6108.4  8.167e-13
6109.8  8.005e-13
6111.2  8.092e-13
6112.6  8.191e-13
6114.0  8.243e-13
6115.4  8.189e-13
6116.8  8.115e-13
6118.2  8.037e-13
6119.6  7.857e-13
6121.0  7.827e-13
6122.4  8.053e-13
6123.8  8.469e-13
6125.2  8.726e-13
6126.6  8.699e-13
6128.0  8.888e-13
6129.4  9.181e-13
6130.8  9.153e-13
6132.2  8.889e-13
6133.6  8.54e-13
6135.0  8.203e-13
6136.4  8.374e-13
6137.8  9.002e-13
6139.2  9.33e-13
6140.6  9.35e-13
6142.0  9.413e-13
6143.4  9.606e-13
6144.8  9.746e-13
6146.2  9.767e-13
6147.6  9.016e-13
6149.0  7.844e-13
6150.4  7.254e-13
6151.8  7.282e-13
6153.2  7.162e-13
6154.6  6.785e-13
6156.0  6.557e-13
6157.4  6.209e-13
6158.8  5.493e-13
6160.2  4.798e-13
6161.6  4.383e-13
6163.0  4.237e-13
6164.4  4.244e-13
6165.8  4.262e-13
6167.2  4.255e-13
6168.6  4.21e-13
6170.0  4.268e-13
6171.4  4.413e-13
6172.8  4.456e-13
6174.2  4.354e-13
6175.6  4.201e-13
6177.0  4.235e-13
6178.4  4.315e-13
6179.8  4.346e-13
6181.2  4.411e-13
6182.6  4.434e-13
6184.0  4.267e-13
6185.4  4.082e-13
6186.8  3.894e-13
6188.2  3.859e-13
6189.6  3.942e-13
6191.0  3.815e-13
6192.4  3.671e-13
6193.8  3.621e-13
6195.2  3.726e-13
6196.6  3.887e-13
6198.0  3.982e-13
6199.4  4.013e-13
6200.8  4.02e-13
6202.2  4.066e-13
6203.6  4.117e-13
6205.0  4.165e-13
6206.4  4.271e-13
6207.8  4.392e-13
6209.2  4.406e-13
6210.6  4.323e-13
6212.0  4.231e-13
6213.4  4.149e-13
6214.8  4.002e-13
6216.2  3.786e-13
6217.6  3.694e-13
6219.0  3.758e-13
6220.4  3.857e-13
6221.8  3.928e-13
6223.2  3.747e-13
6224.6  3.501e-13
6226.0  3.511e-13
6227.4  3.595e-13
6228.8  3.518e-13
6230.2  3.68e-13
6231.6  3.698e-13
6233.0  3.718e-13
6234.4  3.737e-13
6235.8  3.794e-13
6237.2  3.946e-13
6238.6  3.998e-13
6240.0  4.031e-13
6241.4  4.035e-13
6242.8  4.025e-13
6244.2  3.971e-13
6245.6  3.909e-13
6247.0  4.004e-13
6248.4  4.202e-13
6249.8  4.299e-13
6251.2  4.298e-13
6252.6  4.312e-13
6254.0  4.415e-13
6255.4  4.591e-13
6256.8  4.621e-13
6258.2  4.609e-13
6259.6  4.702e-13
6261.0  4.741e-13
6262.4  4.741e-13
6263.8  4.901e-13
6265.2  4.976e-13
6266.6  4.829e-13
6268.0  4.754e-13
6269.4  4.718e-13
6270.8  4.768e-13
6272.2  4.96e-13
6273.6  5.13e-13
6275.0  5.131e-13
6276.4  5.08e-13
6277.8  4.906e-13
6279.2  4.714e-13
6280.6  4.652e-13
6282.0  4.779e-13
6283.4  5.03e-13
6284.8  5.238e-13
6286.2  5.247e-13
6287.6  5.276e-13
6289.0  5.359e-13
6290.4  5.462e-13
6291.8  5.638e-13
6293.2  5.599e-13
6294.6  5.571e-13
6296.0  5.506e-13
6297.4  5.498e-13
6298.8  5.63e-13
6300.2  5.75e-13
6301.6  5.915e-13
6303.0  5.961e-13
6304.4  5.89e-13
6305.8  5.936e-13
6307.2  6.167e-13
6308.6  6.389e-13
6310.0  6.546e-13
6311.4  6.57e-13
6312.8  6.623e-13
6314.2  6.838e-13
6315.6  6.993e-13
6317.0  7.1e-13
6318.4  7.218e-13
6319.8  7.236e-13
6321.2  7.08e-13
6322.6  6.788e-13
6324.0  6.66e-13
6325.4  6.775e-13
6326.8  6.987e-13
6328.2  7.302e-13
6329.6  7.483e-13
6331.0  7.372e-13
6332.4  7.21e-13
6333.8  7.211e-13
6335.2  7.25e-13
6336.6  7.341e-13
6338.0  7.68e-13
6339.4  7.999e-13
6340.8  8.186e-13
6342.2  8.296e-13
6343.6  8.209e-13
6345.0  8.07e-13
6346.4  7.953e-13
6347.8  7.944e-13
6349.2  8.038e-13
6350.6  8.153e-13
6352.0  8.044e-13
6353.4  7.754e-13
6354.8  7.571e-13
6356.2  7.491e-13
6357.6  7.35e-13
6359.0  7.231e-13
6360.4  7.302e-13
6361.8  7.437e-13
6363.2  7.474e-13
6364.6  7.548e-13
6366.0  7.838e-13
6367.4  8.15e-13
6368.8  8.289e-13
6370.2  8.452e-13
6371.6  8.614e-13
6373.0  8.562e-13
6374.4  8.545e-13
6375.8  8.752e-13
6377.2  8.865e-13
6378.6  8.773e-13
6380.0  8.63e-13
6381.4  8.77e-13
6382.8  8.97e-13
6384.2  8.699e-13
6385.6  8.495e-13
6387.0  8.517e-13
6388.4  8.668e-13
6389.8  8.801e-13
6391.2  8.826e-13
6392.6  8.896e-13
6394.0  9.012e-13
6395.4  9.187e-13
6396.8  9.387e-13
6398.2  9.513e-13
6399.6  9.602e-13
6401.0  9.689e-13
6402.4  9.911e-13
6403.8  1.022e-12
6405.2  1.041e-12
6406.6  1.057e-12
6408.0  1.047e-12
6409.4  1.039e-12
6410.8  1.05e-12
6412.2  1.038e-12
6413.6  9.848e-13
6415.0  9.351e-13
6416.4  9.179e-13
6417.8  9.147e-13
6419.2  9.035e-13
6420.6  8.746e-13
6422.0  8.552e-13
6423.4  8.601e-13
6424.8  8.698e-13
6426.2  8.94e-13
6427.6  9.253e-13
6429.0  9.355e-13
6430.4  9.222e-13
6431.8  9.297e-13
6433.2  9.63e-13
6434.6  9.889e-13
6436.0  9.935e-13
6437.4  1.006e-12
6438.8  9.92e-13
6440.2  9.986e-13
6441.6  1.038e-12
6443.0  1.071e-12
6444.4  1.083e-12
6445.8  1.064e-12
6447.2  1.015e-12
6448.6  9.688e-13
6450.0  9.567e-13
6451.4  9.773e-13
6452.8  1.007e-12
6454.2  1.018e-12
6455.6  1.022e-12
6457.0  1.041e-12
6458.4  1.067e-12
6459.8  1.09e-12
6461.2  1.082e-12
6462.6  1.052e-12
6464.0  1.06e-12
6465.4  1.117e-12
6466.8  1.157e-12
6468.2  1.173e-12
6469.6  1.191e-12
6471.0  1.187e-12
6472.4  1.145e-12
6473.8  1.092e-12
6475.2  1.074e-12
6476.6  1.099e-12
6478.0  1.091e-12
6479.4  1.039e-12
6480.8  1.011e-12
6482.2  9.762e-13
6483.6  9.353e-13
6485.0  9.12e-13
6486.4  9.206e-13
6487.8  9.409e-13
6489.2  9.415e-13
6490.6  9.484e-13
6492.0  9.717e-13
6493.4  9.766e-13
6494.8  9.568e-13
6496.2  9.305e-13
6497.6  9.223e-13
6499.0  9.495e-13
6500.4  9.973e-13
6501.8  1.023e-12
6503.2  1.037e-12
6504.6  1.061e-12
6506.0  1.084e-12
6507.4  1.076e-12
6508.8  1.065e-12
6510.2  1.064e-12
6511.6  1.055e-12
6513.0  1.032e-12
6514.4  1.017e-12
6515.8  1.024e-12
6517.2  1.042e-12
6518.6  1.057e-12
6520.0  1.077e-12
6521.4  1.1e-12
6522.8  1.117e-12
6524.2  1.126e-12
6525.6  1.123e-12
6527.0  1.136e-12
6528.4  1.177e-12
6529.8  1.205e-12
6531.2  1.199e-12
6532.6  1.19e-12
6534.0  1.213e-12
6535.4  1.247e-12
6536.8  1.265e-12
6538.2  1.268e-12
6539.6  1.286e-12
6541.0  1.309e-12
6542.4  1.253e-12
6543.8  1.165e-12
6545.2  1.1e-12
6546.6  1.081e-12
6548.0  1.094e-12
6549.4  1.084e-12
6550.8  1.059e-12
6552.2  1.046e-12
6553.6  1.043e-12
6555.0  1.044e-12
6556.4  1.052e-12
6557.8  1.077e-12
6559.2  1.09e-12
6560.6  1.018e-12
6562.0  8.923e-13
6563.4  8.369e-13
6564.8  9.013e-13
6566.2  9.75e-13
6567.6  9.914e-13
6569.0  9.732e-13
6570.4  9.585e-13
6571.8  9.68e-13
6573.2  9.949e-13
6574.6  1.016e-12
6576.0  1.011e-12
6577.4  9.836e-13
6578.8  9.564e-13
6580.2  9.493e-13
6581.6  9.696e-13
6583.0  9.971e-13
6584.4  1.013e-12
6585.8  1.037e-12
6587.2  1.077e-12
6588.6  1.071e-12
6590.0  1.033e-12
6591.4  1.003e-12
6592.8  9.722e-13
6594.2  9.449e-13
6595.6  9.428e-13
6597.0  9.5e-13
6598.4  9.44e-13
6599.8  9.477e-13
6601.2  9.558e-13
6602.6  9.583e-13
6604.0  9.518e-13
6605.4  9.626e-13
6606.8  9.715e-13
6608.2  9.544e-13
6609.6  9.405e-13
6611.0  9.769e-13
6612.4  9.984e-13
6613.8  9.869e-13
6615.2  9.631e-13
6616.6  9.312e-13
6618.0  9.063e-13
6619.4  9.034e-13
6620.8  9.091e-13
6622.2  8.983e-13
6623.6  8.771e-13
6625.0  8.532e-13
6626.4  8.36e-13
6627.8  8.471e-13
6629.2  8.662e-13
6630.6  8.677e-13
6632.0  8.663e-13
6633.4  8.63e-13
6634.8  8.359e-13
6636.2  7.998e-13
6637.6  7.951e-13
6639.0  8.144e-13
6640.4  8.463e-13
6641.8  8.665e-13
6643.2  8.596e-13
6644.6  8.445e-13
6646.0  8.38e-13
6647.4  8.265e-13
6648.8  7.852e-13
6650.2  7.125e-13
6651.6  6.642e-13
6653.0  6.616e-13
6654.4  6.726e-13
6655.8  6.7e-13
6657.2  6.733e-13
6658.6  6.87e-13
6660.0  6.925e-13
6661.4  6.925e-13
6662.8  7.138e-13
6664.2  7.383e-13
6665.6  7.472e-13
6667.0  7.558e-13
6668.4  7.664e-13
6669.8  7.782e-13
6671.2  7.868e-13
6672.6  7.805e-13
6674.0  7.674e-13
6675.4  7.51e-13
6676.8  7.289e-13
6678.2  7.064e-13
6679.6  6.68e-13
6681.0  6.251e-13
6682.4  6.147e-13
6683.8  6.251e-13
6685.2  6.28e-13
6686.6  6.267e-13
6688.0  6.455e-13
6689.4  6.576e-13
6690.8  6.572e-13
6692.2  6.575e-13
6693.6  6.571e-13
6695.0  6.654e-13
6696.4  6.761e-13
6697.8  6.799e-13
6699.2  6.87e-13
6700.6  7.105e-13
6702.0  7.284e-13
6703.4  7.273e-13
6704.8  7.136e-13
6706.2  7.123e-13
6707.6  7.266e-13
6709.0  7.414e-13
6710.4  7.394e-13
6711.8  7.17e-13
6713.2  6.684e-13
6714.6  6.092e-13
6716.0  5.896e-13
6717.4  5.872e-13
6718.8  5.812e-13
6720.2  5.788e-13
6721.6  5.841e-13
6723.0  5.892e-13
6724.4  5.887e-13
6725.8  5.876e-13
6727.2  5.893e-13
6728.6  5.958e-13
6730.0  6.092e-13
6731.4  6.255e-13
6732.8  6.393e-13
6734.2  6.473e-13
6735.6  6.496e-13
6737.0  6.53e-13
6738.4  6.632e-13
6739.8  6.833e-13
6741.2  7.005e-13
6742.6  6.96e-13
6744.0  6.895e-13
6745.4  6.861e-13
6746.8  6.729e-13
6748.2  6.484e-13
6749.6  6.432e-13
6751.0  6.544e-13
6752.4  6.65e-13
6753.8  6.802e-13
6755.2  6.977e-13
6756.6  7.018e-13
6758.0  6.941e-13
6759.4  6.982e-13
6760.8  7.011e-13
6762.2  7.114e-13
6763.6  7.34e-13
6765.0  7.528e-13
6766.4  7.708e-13
6767.8  7.818e-13
6769.2  7.859e-13
6770.6  7.96e-13
6772.0  8.028e-13
6773.4  8.145e-13
6774.8  8.326e-13
6776.2  8.374e-13
6777.6  8.57e-13
6779.0  8.672e-13
6780.4  8.237e-13
6781.8  7.607e-13
6783.2  7.175e-13
6784.6  7.038e-13
6786.0  7.101e-13
6787.4  7.235e-13
6788.8  7.302e-13
6790.2  7.267e-13
6791.6  7.23e-13
6793.0  7.251e-13
6794.4  7.372e-13
6795.8  7.569e-13
6797.2  7.742e-13
6798.6  7.738e-13
6800.0  7.757e-13
6801.4  8.016e-13
6802.8  8.239e-13
6804.2  8.329e-13
6805.6  8.294e-13
6807.0  8.285e-13
6808.4  8.407e-13
6809.8  8.622e-13
6811.2  8.731e-13
6812.6  8.635e-13
6814.0  8.448e-13
6815.4  8.226e-13
6816.8  8.101e-13
6818.2  8.145e-13
6819.6  8.271e-13
6821.0  8.398e-13
6822.4  8.616e-13
6823.8  8.845e-13
6825.2  8.847e-13
6826.6  8.783e-13
6828.0  8.808e-13
6829.4  8.901e-13
6830.8  9.026e-13
6832.2  9.07e-13
6833.6  9.157e-13
6835.0  9.419e-13
6836.4  9.654e-13
6837.8  9.787e-13
6839.2  9.832e-13
6840.6  9.783e-13
6842.0  9.816e-13
6843.4  9.967e-13
6844.8  1.016e-12
6846.2  1.035e-12
6847.6  1.046e-12
6849.0  1.02e-12
6850.4  9.603e-13
6851.8  9.305e-13
6853.2  9.166e-13
6854.6  9.069e-13
6856.0  9.075e-13
6857.4  9.387e-13
6858.8  9.513e-13
6860.2  9.603e-13
6861.6  9.67e-13
6863.0  9.507e-13
6864.4  9.588e-13
6865.8  9.709e-13
6867.2  9.347e-13
6868.6  8.378e-13
6870.0  7.651e-13
6871.4  7.687e-13
6872.8  8.1e-13
6874.2  8.339e-13
6875.6  8.558e-13
6877.0  8.852e-13
6878.4  9.185e-13
6879.8  9.636e-13
6881.2  1.023e-12
6882.6  1.06e-12
6884.0  1.063e-12
6885.4  1.062e-12
6886.8  1.057e-12
6888.2  1.042e-12
6889.6  1.032e-12
6891.0  1.034e-12
6892.4  1.042e-12
6893.8  1.054e-12
6895.2  1.073e-12
6896.6  1.1e-12
6898.0  1.129e-12
6899.4  1.14e-12
6900.8  1.135e-12
6902.2  1.151e-12
6903.6  1.197e-12
6905.0  1.231e-12
6906.4  1.234e-12
6907.8  1.263e-12
6909.2  1.269e-12
6910.6  1.265e-12
6912.0  1.285e-12
6913.4  1.331e-12
6914.8  1.345e-12
6916.2  1.36e-12
6917.6  1.35e-12
6919.0  1.274e-12
6920.4  1.208e-12
6921.8  1.212e-12
6923.2  1.234e-12
6924.6  1.229e-12
6926.0  1.254e-12
6927.4  1.3e-12
6928.8  1.317e-12
6930.2  1.305e-12
6931.6  1.302e-12
6933.0  1.321e-12
6934.4  1.36e-12
6935.8  1.404e-12
6937.2  1.425e-12
6938.6  1.425e-12
6940.0  1.444e-12
6941.4  1.483e-12
6942.8  1.494e-12
6944.2  1.49e-12
6945.6  1.49e-12
6947.0  1.503e-12
6948.4  1.558e-12
6949.8  1.606e-12
6951.2  1.601e-12
6952.6  1.554e-12
6954.0  1.516e-12
6955.4  1.525e-12
6956.8  1.558e-12
6958.2  1.578e-12
6959.6  1.589e-12
6961.0  1.63e-12
6962.4  1.681e-12
6963.8  1.715e-12
6965.2  1.737e-12
6966.6  1.746e-12
6968.0  1.764e-12
6969.4  1.796e-12
6970.8  1.825e-12
6972.2  1.846e-12
6973.6  1.836e-12
6975.0  1.832e-12
6976.4  1.847e-12
6977.8  1.837e-12
6979.2  1.846e-12
6980.6  1.89e-12
6982.0  1.931e-12
6983.4  1.949e-12
6984.8  1.953e-12
6986.2  1.955e-12
6987.6  1.92e-12
6989.0  1.843e-12
6990.4  1.807e-12
6991.8  1.853e-12
6993.2  1.904e-12
6994.6  1.89e-12
6996.0  1.858e-12
6997.4  1.865e-12
6998.8  1.888e-12
7000.2  1.893e-12
7001.6  1.928e-12
7003.0  1.954e-12
7004.4  1.923e-12
7005.8  1.876e-12
7007.2  1.919e-12
7008.6  1.974e-12
7010.0  1.994e-12
7011.4  2.002e-12
7012.8  2.03e-12
7014.2  2.042e-12
7015.6  2.02e-12
7017.0  2.006e-12
7018.4  2.05e-12
7019.8  2.088e-12
7021.2  2.098e-12
7022.6  2.062e-12
7024.0  2.021e-12
7025.4  2.039e-12
7026.8  2.032e-12
7028.2  2.008e-12
7029.6  2.029e-12
7031.0  2.08e-12
7032.4  2.097e-12
7033.8  2.098e-12
7035.2  2.121e-12
7036.6  2.124e-12
7038.0  2.072e-12
7039.4  2.043e-12
7040.8  2.061e-12
7042.2  2.093e-12
7043.6  2.141e-12
7045.0  2.175e-12
7046.4  2.186e-12
7047.8  2.197e-12
7049.2  2.207e-12
7050.6  2.167e-12
7052.0  2.024e-12
7053.4  1.703e-12
7054.8  1.264e-12
7056.2  1.033e-12
7057.6  9.886e-13
7059.0  9.633e-13
7060.4  8.984e-13
7061.8  8.882e-13
7063.2  8.973e-13
7064.6  9.152e-13
7066.0  9.428e-13
7067.4  9.692e-13
7068.8  9.746e-13
7070.2  1.004e-12
7071.6  1.043e-12
7073.0  1.047e-12
7074.4  1.025e-12
7075.8  1.05e-12
7077.2  1.078e-12
7078.6  1.087e-12
7080.0  1.115e-12
7081.4  1.163e-12
7082.8  1.168e-12
7084.2  1.119e-12
7085.6  1.04e-12
7087.0  9.299e-13
7088.4  8.033e-13
7089.8  7.413e-13
7091.2  7.413e-13
7092.6  7.331e-13
7094.0  7.197e-13
7095.4  7.254e-13
7096.8  7.481e-13
7098.2  7.524e-13
7099.6  7.418e-13
7101.0  7.51e-13
7102.4  7.636e-13
7103.8  7.886e-13
7105.2  8.346e-13
7106.6  8.586e-13
7108.0  8.783e-13
7109.4  8.989e-13
7110.8  9.192e-13
7112.2  9.269e-13
7113.6  9.113e-13
7115.0  9.253e-13
7116.4  9.583e-13
7117.8  9.953e-13
7119.2  1.019e-12
7120.6  9.948e-13
7122.0  9.821e-13
7123.4  9.074e-13
7124.8  7.832e-13
7126.2  7.026e-13
7127.6  6.727e-13
7129.0  6.676e-13
7130.4  6.61e-13
7131.8  6.492e-13
7133.2  6.472e-13
7134.6  6.503e-13
7136.0  6.445e-13
7137.4  6.417e-13
7138.8  6.519e-13
7140.2  6.733e-13
7141.6  7.039e-13
7143.0  7.244e-13
7144.4  7.319e-13
7145.8  7.514e-13
7147.2  7.723e-13
7148.6  7.613e-13
7150.0  7.518e-13
7151.4  7.819e-13
7152.8  8.12e-13
7154.2  8.362e-13
7155.6  8.563e-13
7157.0  8.511e-13
7158.4  8.13e-13
7159.8  7.837e-13
7161.2  8.004e-13
7162.6  8.019e-13
7164.0  7.99e-13
7165.4  8.197e-13
7166.8  8.273e-13
7168.2  8.174e-13
7169.6  8.088e-13
7171.0  8.098e-13
7172.4  8.062e-13
7173.8  7.924e-13
7175.2  8.118e-13
7176.6  8.282e-13
7178.0  8.525e-13
7179.4  8.831e-13
7180.8  8.93e-13
7182.2  8.899e-13
7183.6  8.771e-13
7185.0  8.516e-13
7186.4  8.36e-13
7187.8  8.655e-13
7189.2  9.277e-13
7190.6  9.374e-13
7192.0  9.027e-13
7193.4  8.868e-13
7194.8  8.807e-13
7196.2  8.635e-13
7197.6  8.466e-13
7199.0  8.351e-13
7200.4  8.312e-13
7201.8  8.463e-13
7203.2  8.581e-13
7204.6  8.445e-13
7206.0  8.371e-13
7207.4  8.665e-13
7208.8  9.055e-13
7210.2  9.34e-13
7211.6  9.626e-13
7213.0  9.94e-13
7214.4  1.019e-12
7215.8  1.042e-12
7217.2  1.066e-12
7218.6  1.069e-12
7220.0  1.068e-12
7221.4  1.089e-12
7222.8  1.104e-12
7224.2  1.126e-12
7225.6  1.163e-12
7227.0  1.171e-12
7228.4  1.157e-12
7229.8  1.157e-12
7231.2  1.135e-12
7232.6  1.108e-12
7234.0  1.085e-12
7235.4  1.102e-12
7236.8  1.171e-12
7238.2  1.216e-12
7239.6  1.176e-12
7241.0  1.17e-12
7242.4  1.197e-12
7243.8  1.188e-12
7245.2  1.211e-12
7246.6  1.297e-12
7248.0  1.381e-12
7249.4  1.398e-12
7250.8  1.346e-12
7252.2  1.291e-12
7253.6  1.308e-12
7255.0  1.396e-12
7256.4  1.466e-12
7257.8  1.484e-12
7259.2  1.497e-12
7260.6  1.508e-12
7262.0  1.536e-12
7263.4  1.561e-12
7264.8  1.516e-12
7266.2  1.511e-12
7267.6  1.585e-12
7269.0  1.589e-12
7270.4  1.49e-12
7271.8  1.439e-12
7273.2  1.462e-12
7274.6  1.501e-12
7276.0  1.476e-12
7277.4  1.433e-12
7278.8  1.46e-12
7280.2  1.548e-12
7281.6  1.58e-12
7283.0  1.603e-12
7284.4  1.646e-12
7285.8  1.673e-12
7287.2  1.66e-12
7288.6  1.656e-12
7290.0  1.64e-12
7291.4  1.592e-12
7292.8  1.584e-12
7294.2  1.68e-12
7295.6  1.816e-12
7297.0  1.885e-12
7298.4  1.851e-12
7299.8  1.828e-12
7301.2  1.891e-12
7302.6  1.904e-12
7304.0  1.824e-12
7305.4  1.817e-12
7306.8  1.94e-12
7308.2  2.054e-12
7309.6  2.061e-12
7311.0  2.002e-12
7312.4  1.983e-12
7313.8  2.032e-12
7315.2  2.047e-12
7316.6  2.015e-12
7318.0  2.013e-12
7319.4  2.083e-12
7320.8  2.146e-12
7322.2  2.172e-12
7323.6  2.187e-12
7325.0  2.166e-12
7326.4  2.171e-12
7327.8  2.257e-12
7329.2  2.272e-12
7330.6  2.265e-12
7332.0  2.271e-12
7333.4  2.295e-12
7334.8  2.334e-12
7336.2  2.352e-12
7337.6  2.376e-12
7339.0  2.436e-12
7340.4  2.521e-12
7341.8  2.582e-12
7343.2  2.539e-12
7344.6  2.431e-12
7346.0  2.387e-12
7347.4  2.43e-12
7348.8  2.496e-12
7350.2  2.536e-12
7351.6  2.51e-12
7353.0  2.489e-12
7354.4  2.509e-12
7355.8  2.46e-12
7357.2  2.36e-12
7358.6  2.361e-12
7360.0  2.485e-12
7361.4  2.564e-12
7362.8  2.564e-12
7364.2  2.565e-12
7365.6  2.567e-12
7367.0  2.581e-12
7368.4  2.65e-12
7369.8  2.715e-12
7371.2  2.724e-12
7372.6  2.74e-12
7374.0  2.788e-12
7375.4  2.785e-12
7376.8  2.819e-12
7378.2  2.843e-12
7379.6  2.862e-12
7381.0  2.882e-12
7382.4  2.863e-12
7383.8  2.817e-12
7385.2  2.791e-12
7386.6  2.766e-12
7388.0  2.728e-12
7389.4  2.748e-12
7390.8  2.767e-12
7392.2  2.791e-12
7393.6  2.838e-12
7395.0  2.869e-12
7396.4  2.871e-12
7397.8  2.904e-12
7399.2  2.938e-12
7400.6  2.919e-12
7402.0  2.887e-12
7403.4  2.909e-12
7404.8  2.96e-12
7406.2  2.981e-12
7407.6  2.98e-12
7409.0  2.967e-12
7410.4  2.968e-12
7411.8  2.963e-12
7413.2  2.919e-12
7414.6  2.899e-12
7416.0  2.89e-12
7417.4  2.853e-12
7418.8  2.833e-12
7420.2  2.864e-12
7421.6  2.892e-12
7423.0  2.87e-12
7424.4  2.811e-12
7425.8  2.866e-12
7427.2  2.926e-12
