# Extracted from file: jc_11.fits
#SIMPLETruefile does conform to FITS standard
#BITPIX16number of bits per data pixel
#NAXIS0number of data axes
#EXTENDTrueFITS dataset may contain extensions
#COMMENT  FITS (Flexible Image Transport System) format defined in Astronomy and
#COMMENT  Astrophysics Supplement Series v44/p363, v44/p371, v73/p359, v73/p365.
#COMMENT  Contact the NASA Science Office of Standards and Technology for the
#COMMENT  FITS Definition document #100 and other FITS information.
#ORIGINSTScI-STSDAS/TABLESTables version 1999-03-22
#FILENAMEjc_11.fitsname of file
#DESCRIP= 'Jacobi-Christenson atlas'
#DBTABLE= 'CRGRIDS'
#OBSMODE= ' '
#COMMENT  = 'The Jocobi-Christenson atlas has been extracted from'
#COMMENT  = 'the ATLAS library established at STScI by K.Horne.'
#HISTROY= 'The SDAS tables were generated from the ASCII lists in'
#HISTORY  = 'the ATLAS library. Each table was generated separatly'
#HISTORY  = 'and is in agreement with CDBS Data Design, dated'
#HISTORY  = 'February 28, 1988.'
#TARGETID= ' '
#  
#Columns WAVELENGTH FLUX
#Units  Angstroms FLAM
3510.0  5.982e-12
3511.4  5.849e-12
3512.8  5.598e-12
3514.2  5.683e-12
3515.6  5.921e-12
3517.0  5.989e-12
3518.4  5.907e-12
3519.8  5.697e-12
3521.2  5.517e-12
3522.6  5.675e-12
3524.0  5.585e-12
3525.4  5.619e-12
3526.8  5.7e-12
3528.2  5.677e-12
3529.6  5.752e-12
3531.0  5.647e-12
3532.4  5.468e-12
3533.8  5.482e-12
3535.2  5.645e-12
3536.6  5.674e-12
3538.0  5.467e-12
3539.4  5.571e-12
3540.8  5.573e-12
3542.2  5.647e-12
3543.6  5.883e-12
3545.0  6.087e-12
3546.4  6.088e-12
3547.8  5.637e-12
3549.2  5.553e-12
3550.6  5.477e-12
3552.0  5.552e-12
3553.4  5.561e-12
3554.8  5.364e-12
3556.2  5.46e-12
3557.6  5.376e-12
3559.0  5.37e-12
3560.4  5.457e-12
3561.8  5.428e-12
3563.2  5.472e-12
3564.6  5.568e-12
3566.0  5.491e-12
3567.4  5.577e-12
3568.8  5.687e-12
3570.2  5.558e-12
3571.6  5.342e-12
3573.0  5.407e-12
3574.4  5.531e-12
3575.8  5.674e-12
3577.2  5.785e-12
3578.6  5.733e-12
3580.0  5.492e-12
3581.4  5.427e-12
3582.8  5.784e-12
3584.2  5.969e-12
3585.6  5.803e-12
3587.0  5.732e-12
3588.4  5.688e-12
3589.8  5.566e-12
3591.2  5.513e-12
3592.6  5.64e-12
3594.0  5.733e-12
3595.4  5.656e-12
3596.8  5.771e-12
3598.2  5.87e-12
3599.6  5.716e-12
3601.0  5.661e-12
3602.4  5.758e-12
3603.8  5.465e-12
3605.2  5.17e-12
3606.6  5.217e-12
3608.0  5.158e-12
3609.4  5.254e-12
3610.8  5.286e-12
3612.2  5.226e-12
3613.6  5.298e-12
3615.0  5.311e-12
3616.4  5.311e-12
3617.8  5.488e-12
3619.2  5.612e-12
3620.6  5.621e-12
3622.0  5.561e-12
3623.4  5.53e-12
3624.8  5.472e-12
3626.2  5.386e-12
3627.6  5.175e-12
3629.0  4.965e-12
3630.4  5.016e-12
3631.8  5.116e-12
3633.2  5.01e-12
3634.6  4.987e-12
3636.0  5.256e-12
3637.4  5.294e-12
3638.8  5.277e-12
3640.2  5.457e-12
3641.6  5.454e-12
3643.0  5.565e-12
3644.4  5.515e-12
3645.8  5.2e-12
3647.2  5.216e-12
3648.6  5.333e-12
3650.0  5.372e-12
3651.4  5.448e-12
3652.8  5.469e-12
3654.2  5.514e-12
3655.6  5.277e-12
3657.0  5.326e-12
3658.4  5.554e-12
3659.8  5.551e-12
3661.2  5.362e-12
3662.6  5.364e-12
3664.0  5.362e-12
3665.4  5.312e-12
3666.8  5.327e-12
3668.2  5.315e-12
3669.6  5.268e-12
3671.0  5.083e-12
3672.4  5.169e-12
3673.8  5.15e-12
3675.2  5.129e-12
3676.6  5.222e-12
3678.0  5.202e-12
3679.4  5.293e-12
3680.8  5.356e-12
3682.2  5.264e-12
3683.6  5.246e-12
3685.0  5.375e-12
3686.4  5.441e-12
3687.8  5.261e-12
3689.2  5.175e-12
3690.6  5.178e-12
3692.0  5.205e-12
3693.4  5.424e-12
3694.8  5.507e-12
3696.2  5.077e-12
3697.6  4.663e-12
3699.0  4.657e-12
3700.4  4.907e-12
3701.8  5.081e-12
3703.2  4.865e-12
3704.6  4.665e-12
3706.0  4.645e-12
3707.4  4.869e-12
3708.8  5.044e-12
3710.2  4.919e-12
3711.6  4.953e-12
3713.0  4.99e-12
3714.4  4.909e-12
3715.8  4.908e-12
3717.2  5.008e-12
3718.6  4.823e-12
3720.0  4.85e-12
3721.4  4.933e-12
3722.8  4.907e-12
3724.2  4.918e-12
3725.6  4.936e-12
3727.0  4.96e-12
3728.4  4.97e-12
3729.8  4.955e-12
3731.2  4.986e-12
3732.6  4.896e-12
3734.0  4.819e-12
3735.4  4.876e-12
3736.8  5.012e-12
3738.2  5.103e-12
3739.6  4.988e-12
3741.0  5.031e-12
3742.4  5.345e-12
3743.8  5.329e-12
3745.2  5.017e-12
3746.6  4.772e-12
3748.0  4.649e-12
3749.4  4.542e-12
3750.8  4.642e-12
3752.2  4.744e-12
3753.6  4.732e-12
3755.0  4.635e-12
3756.4  4.721e-12
3757.8  4.981e-12
3759.2  5.187e-12
3760.6  5.239e-12
3762.0  5.044e-12
3763.4  4.934e-12
3764.8  5.03e-12
3766.2  5.088e-12
3767.6  5.001e-12
3769.0  4.674e-12
3770.4  4.266e-12
3771.8  4.127e-12
3773.2  4.315e-12
3774.6  4.723e-12
3776.0  4.927e-12
3777.4  5.098e-12
3778.8  5.316e-12
3780.2  5.492e-12
3781.6  5.609e-12
3783.0  5.359e-12
3784.4  5.194e-12
3785.8  5.294e-12
3787.2  5.238e-12
3788.6  5.188e-12
3790.0  5.224e-12
3791.4  5.036e-12
3792.8  4.762e-12
3794.2  4.62e-12
3795.6  4.458e-12
3797.0  4.278e-12
3798.4  4.289e-12
3799.8  4.485e-12
3801.2  4.659e-12
3802.6  4.819e-12
3804.0  4.898e-12
3805.4  4.985e-12
3806.8  5.039e-12
3808.2  5.119e-12
3809.6  5.4e-12
3811.0  5.424e-12
3812.4  5.241e-12
3813.8  5.222e-12
3815.2  5.365e-12
3816.6  5.311e-12
3818.0  4.905e-12
3819.4  4.535e-12
3820.8  4.486e-12
3822.2  4.799e-12
3823.6  5.272e-12
3825.0  5.159e-12
3826.4  4.897e-12
3827.8  4.848e-12
3829.2  4.877e-12
3830.6  4.839e-12
3832.0  4.504e-12
3833.4  4.112e-12
3834.8  3.664e-12
3836.2  3.521e-12
3837.6  3.834e-12
3839.0  4.11e-12
3840.4  4.47e-12
3841.8  4.873e-12
3843.2  5.172e-12
3844.6  5.23e-12
3846.0  4.946e-12
3847.4  4.865e-12
3848.8  4.925e-12
3850.2  5.069e-12
3851.6  5.197e-12
3853.0  5.15e-12
3854.4  5.168e-12
3855.8  5.172e-12
3857.2  5.16e-12
3858.6  5.224e-12
3860.0  5.296e-12
3861.4  5.245e-12
3862.8  5.089e-12
3864.2  5.004e-12
3865.6  5.022e-12
3867.0  4.892e-12
3868.4  4.859e-12
3869.8  4.92e-12
3871.2  4.882e-12
3872.6  4.857e-12
3874.0  4.874e-12
3875.4  4.914e-12
3876.8  5.009e-12
3878.2  4.947e-12
3879.6  4.709e-12
3881.0  4.452e-12
3882.4  4.382e-12
3883.8  4.396e-12
3885.2  4.207e-12
3886.6  3.862e-12
3888.0  3.511e-12
3889.4  3.421e-12
3890.8  3.739e-12
3892.2  4.161e-12
3893.6  4.375e-12
3895.0  4.391e-12
3896.4  4.508e-12
3897.8  4.864e-12
3899.2  5.075e-12
3900.6  5.074e-12
3902.0  5.016e-12
3903.4  4.992e-12
3904.8  4.962e-12
3906.2  4.883e-12
3907.6  5.021e-12
3909.0  5.11e-12
3910.4  4.98e-12
3911.8  5.141e-12
3913.2  5.134e-12
3914.6  5.096e-12
3916.0  5.006e-12
3917.4  4.859e-12
3918.8  5.001e-12
3920.2  4.911e-12
3921.6  4.702e-12
3923.0  4.805e-12
3924.4  4.879e-12
3925.8  4.751e-12
3927.2  4.786e-12
3928.6  4.855e-12
3930.0  4.738e-12
3931.4  4.528e-12
3932.8  4.419e-12
3934.2  4.619e-12
3935.6  4.736e-12
3937.0  4.717e-12
3938.4  4.912e-12
3939.8  4.822e-12
3941.2  4.747e-12
3942.6  4.763e-12
3944.0  4.737e-12
3945.4  4.656e-12
3946.8  4.676e-12
3948.2  4.776e-12
3949.6  4.831e-12
3951.0  4.779e-12
3952.4  4.646e-12
3953.8  4.654e-12
3955.2  4.832e-12
3956.6  4.713e-12
3958.0  4.593e-12
3959.4  4.621e-12
3960.8  4.47e-12
3962.2  4.223e-12
3963.6  4.082e-12
3965.0  3.908e-12
3966.4  3.631e-12
3967.8  3.333e-12
3969.2  3.23e-12
3970.6  3.292e-12
3972.0  3.414e-12
3973.4  3.66e-12
3974.8  3.947e-12
3976.2  4.111e-12
3977.6  4.2e-12
3979.0  4.311e-12
3980.4  4.446e-12
3981.8  4.507e-12
3983.2  4.464e-12
3984.6  4.413e-12
3986.0  4.45e-12
3987.4  4.552e-12
3988.8  4.568e-12
3990.2  4.578e-12
3991.6  4.693e-12
3993.0  4.723e-12
3994.4  4.585e-12
3995.8  4.539e-12
3997.2  4.528e-12
3998.6  4.402e-12
4000.0  4.412e-12
4001.4  4.444e-12
4002.8  4.437e-12
4004.2  4.396e-12
4005.6  4.438e-12
4007.0  4.463e-12
4008.4  4.305e-12
4009.8  4.181e-12
4011.2  4.24e-12
4012.6  4.32e-12
4014.0  4.408e-12
4015.4  4.509e-12
4016.8  4.505e-12
4018.2  4.412e-12
4019.6  4.354e-12
4021.0  4.377e-12
4022.4  4.193e-12
4023.8  3.949e-12
4025.2  3.707e-12
4026.6  3.627e-12
4028.0  3.874e-12
4029.4  4.109e-12
4030.8  4.212e-12
4032.2  4.304e-12
4033.6  4.392e-12
4035.0  4.288e-12
4036.4  4.262e-12
4037.8  4.286e-12
4039.2  4.35e-12
4040.6  4.241e-12
4042.0  4.127e-12
4043.4  4.161e-12
4044.8  4.272e-12
4046.2  4.363e-12
4047.6  4.293e-12
4049.0  4.24e-12
4050.4  4.241e-12
4051.8  4.174e-12
4053.2  4.253e-12
4054.6  4.226e-12
4056.0  4.071e-12
4057.4  4.099e-12
4058.8  4.115e-12
4060.2  4.132e-12
4061.6  4.163e-12
4063.0  4.088e-12
4064.4  4.145e-12
4065.8  4.173e-12
4067.2  3.995e-12
4068.6  3.807e-12
4070.0  3.741e-12
4071.4  3.899e-12
4072.8  3.946e-12
4074.2  3.787e-12
4075.6  3.861e-12
4077.0  4.094e-12
4078.4  4.177e-12
4079.8  4.104e-12
4081.2  3.993e-12
4082.6  3.973e-12
4084.0  3.963e-12
4085.4  3.847e-12
4086.8  3.782e-12
4088.2  3.776e-12
4089.6  3.756e-12
4091.0  3.675e-12
4092.4  3.577e-12
4093.8  3.565e-12
4095.2  3.587e-12
4096.6  3.424e-12
4098.0  3.229e-12
4099.4  2.998e-12
4100.8  2.799e-12
4102.2  2.855e-12
4103.6  2.966e-12
4105.0  3.158e-12
4106.4  3.364e-12
4107.8  3.471e-12
4109.2  3.703e-12
4110.6  3.683e-12
4112.0  3.642e-12
4113.4  3.818e-12
4114.8  3.77e-12
4116.2  3.613e-12
4117.6  3.661e-12
4119.0  3.785e-12
4120.4  3.745e-12
4121.8  3.703e-12
4123.2  3.769e-12
4124.6  3.951e-12
4126.0  3.937e-12
4127.4  3.893e-12
4128.8  3.889e-12
4130.2  3.883e-12
4131.6  3.878e-12
4133.0  3.904e-12
4134.4  3.877e-12
4135.8  3.811e-12
4137.2  3.677e-12
4138.6  3.721e-12
4140.0  3.738e-12
4141.4  3.581e-12
4142.8  3.439e-12
4144.2  3.405e-12
4145.6  3.516e-12
4147.0  3.654e-12
4148.4  3.644e-12
4149.8  3.719e-12
4151.2  3.777e-12
4152.6  3.732e-12
4154.0  3.728e-12
4155.4  3.598e-12
4156.8  3.474e-12
4158.2  3.527e-12
4159.6  3.61e-12
4161.0  3.668e-12
4162.4  3.72e-12
4163.8  3.717e-12
4165.2  3.724e-12
4166.6  3.767e-12
4168.0  3.707e-12
4169.4  3.596e-12
4170.8  3.571e-12
4172.2  3.656e-12
4173.6  3.704e-12
4175.0  3.645e-12
4176.4  3.628e-12
4177.8  3.629e-12
4179.2  3.64e-12
4180.6  3.622e-12
4182.0  3.533e-12
4183.4  3.517e-12
4184.8  3.571e-12
4186.2  3.517e-12
4187.6  3.374e-12
4189.0  3.451e-12
4190.4  3.588e-12
4191.8  3.626e-12
4193.2  3.618e-12
4194.6  3.607e-12
4196.0  3.562e-12
4197.4  3.462e-12
4198.8  3.485e-12
4200.2  3.5e-12
4201.6  3.505e-12
4203.0  3.575e-12
4204.4  3.591e-12
4205.8  3.563e-12
4207.2  3.606e-12
4208.6  3.623e-12
4210.0  3.549e-12
4211.4  3.439e-12
4212.8  3.422e-12
4214.2  3.514e-12
4215.6  3.577e-12
4217.0  3.569e-12
4218.4  3.533e-12
4219.8  3.49e-12
4221.2  3.442e-12
4222.6  3.446e-12
4224.0  3.578e-12
4225.4  3.68e-12
4226.8  3.579e-12
4228.2  3.491e-12
4229.6  3.431e-12
4231.0  3.342e-12
4232.4  3.299e-12
4233.8  3.405e-12
4235.2  3.464e-12
4236.6  3.454e-12
4238.0  3.404e-12
4239.4  3.407e-12
4240.8  3.394e-12
4242.2  3.398e-12
4243.6  3.463e-12
4245.0  3.453e-12
4246.4  3.427e-12
4247.8  3.413e-12
4249.2  3.354e-12
4250.6  3.35e-12
4252.0  3.413e-12
4253.4  3.425e-12
4254.8  3.375e-12
4256.2  3.345e-12
4257.6  3.346e-12
4259.0  3.368e-12
4260.4  3.359e-12
4261.8  3.323e-12
4263.2  3.325e-12
4264.6  3.354e-12
4266.0  3.373e-12
4267.4  3.363e-12
4268.8  3.395e-12
4270.2  3.43e-12
4271.6  3.37e-12
4273.0  3.28e-12
4274.4  3.152e-12
4275.8  3.077e-12
4277.2  3.121e-12
4278.6  3.198e-12
4280.0  3.31e-12
4281.4  3.369e-12
4282.8  3.307e-12
4284.2  3.282e-12
4285.6  3.279e-12
4287.0  3.27e-12
4288.4  3.31e-12
4289.8  3.326e-12
4291.2  3.249e-12
4292.6  3.21e-12
4294.0  3.263e-12
4295.4  3.412e-12
4296.8  3.443e-12
4298.2  3.39e-12
4299.6  3.361e-12
4301.0  3.246e-12
4302.4  3.186e-12
4303.8  3.212e-12
4305.2  3.229e-12
4306.6  3.225e-12
4308.0  3.249e-12
4309.4  3.296e-12
4310.8  3.341e-12
4312.2  3.322e-12
4313.6  3.254e-12
4315.0  3.209e-12
4316.4  3.176e-12
4317.8  3.183e-12
4319.2  3.188e-12
4320.6  3.163e-12
4322.0  3.128e-12
4323.4  3.157e-12
4324.8  3.367e-12
4326.2  3.3e-12
4327.6  3.133e-12
4329.0  3.094e-12
4330.4  3.025e-12
4331.8  2.983e-12
4333.2  3.013e-12
4334.6  2.996e-12
4336.0  2.884e-12
4337.4  2.66e-12
4338.8  2.441e-12
4340.2  2.272e-12
4341.6  2.182e-12
4343.0  2.315e-12
4344.4  2.534e-12
4345.8  2.692e-12
4347.2  2.806e-12
4348.6  2.841e-12
4350.0  2.875e-12
4351.4  2.877e-12
4352.8  2.87e-12
4354.2  3.003e-12
4355.6  3.093e-12
4357.0  3.063e-12
4358.4  3.066e-12
4359.8  3.109e-12
4361.2  3.151e-12
4362.6  3.13e-12
4364.0  3.106e-12
4365.4  3.148e-12
4366.8  3.119e-12
4368.2  3.032e-12
4369.6  3.033e-12
4371.0  3.106e-12
4372.4  3.176e-12
4373.8  3.116e-12
4375.2  3.048e-12
4376.6  3.13e-12
4378.0  3.093e-12
4379.4  3.069e-12
4380.8  3.08e-12
4382.2  3.01e-12
4383.6  3.03e-12
4385.0  3.029e-12
4386.4  2.901e-12
4387.8  2.747e-12
4389.2  2.655e-12
4390.6  2.806e-12
4392.0  3.048e-12
4393.4  3.167e-12
4394.8  3.161e-12
4396.2  3.085e-12
4397.6  3.091e-12
4399.0  3.155e-12
4400.4  3.087e-12
4401.8  3.028e-12
4403.2  3.033e-12
4404.6  3.04e-12
4406.0  2.983e-12
4407.4  2.936e-12
4408.8  3.029e-12
4410.2  3.055e-12
4411.6  2.997e-12
4413.0  2.993e-12
4414.4  2.9e-12
4415.8  2.84e-12
4417.2  2.847e-12
4418.6  2.887e-12
4420.0  3.01e-12
4421.4  2.953e-12
4422.8  2.885e-12
4424.2  2.874e-12
4425.6  2.801e-12
4427.0  2.795e-12
4428.4  2.837e-12
4429.8  2.845e-12
4431.2  2.808e-12
4432.6  2.765e-12
4434.0  2.824e-12
4435.4  2.921e-12
4436.8  2.924e-12
4438.2  2.884e-12
4439.6  2.884e-12
4441.0  2.965e-12
4442.4  2.973e-12
4443.8  2.874e-12
4445.2  2.832e-12
4446.6  2.779e-12
4448.0  2.808e-12
4449.4  2.943e-12
4450.8  2.982e-12
4452.2  2.917e-12
4453.6  2.859e-12
4455.0  2.952e-12
4456.4  3.012e-12
4457.8  2.841e-12
4459.2  2.822e-12
4460.6  2.965e-12
4462.0  2.946e-12
4463.4  2.871e-12
4464.8  2.758e-12
4466.2  2.663e-12
4467.6  2.613e-12
4469.0  2.459e-12
4470.4  2.279e-12
4471.8  2.267e-12
4473.2  2.403e-12
4474.6  2.558e-12
4476.0  2.679e-12
4477.4  2.75e-12
4478.8  2.787e-12
4480.2  2.761e-12
4481.6  2.738e-12
4483.0  2.794e-12
4484.4  2.826e-12
4485.8  2.781e-12
4487.2  2.716e-12
4488.6  2.78e-12
4490.0  2.809e-12
4491.4  2.817e-12
4492.8  2.826e-12
4494.2  2.818e-12
4495.6  2.809e-12
4497.0  2.837e-12
4498.4  2.773e-12
4499.8  2.746e-12
4501.2  2.81e-12
4502.6  2.831e-12
4504.0  2.66e-12
4505.4  2.621e-12
4506.8  2.776e-12
4508.2  2.863e-12
4509.6  2.796e-12
4511.0  2.739e-12
4512.4  2.654e-12
4513.8  2.596e-12
4515.2  2.66e-12
4516.6  2.712e-12
4518.0  2.745e-12
4519.4  2.758e-12
4520.8  2.791e-12
4522.2  2.79e-12
4523.6  2.693e-12
4525.0  2.634e-12
4526.4  2.637e-12
4527.8  2.68e-12
4529.2  2.72e-12
4530.6  2.705e-12
4532.0  2.628e-12
4533.4  2.592e-12
4534.8  2.645e-12
4536.2  2.662e-12
4537.6  2.666e-12
4539.0  2.656e-12
4540.4  2.62e-12
4541.8  2.672e-12
4543.2  2.771e-12
4544.6  2.774e-12
4546.0  2.741e-12
4547.4  2.676e-12
4548.8  2.571e-12
4550.2  2.538e-12
4551.6  2.597e-12
4553.0  2.69e-12
4554.4  2.74e-12
4555.8  2.727e-12
4557.2  2.68e-12
4558.6  2.747e-12
4560.0  2.805e-12
4561.4  2.657e-12
4562.8  2.629e-12
4564.2  2.68e-12
4565.6  2.596e-12
4567.0  2.484e-12
4568.4  2.482e-12
4569.8  2.452e-12
4571.2  2.496e-12
4572.6  2.583e-12
4574.0  2.605e-12
4575.4  2.557e-12
4576.8  2.6e-12
4578.2  2.596e-12
4579.6  2.587e-12
4581.0  2.667e-12
4582.4  2.687e-12
4583.8  2.632e-12
4585.2  2.603e-12
4586.6  2.592e-12
4588.0  2.577e-12
4589.4  2.517e-12
4590.8  2.558e-12
4592.2  2.608e-12
4593.6  2.542e-12
4595.0  2.482e-12
4596.4  2.497e-12
4597.8  2.536e-12
4599.2  2.568e-12
4600.6  2.61e-12
4602.0  2.664e-12
4603.4  2.595e-12
4604.8  2.523e-12
4606.2  2.535e-12
4607.6  2.541e-12
4609.0  2.515e-12
4610.4  2.451e-12
4611.8  2.422e-12
4613.2  2.502e-12
4614.6  2.555e-12
4616.0  2.48e-12
4617.4  2.416e-12
4618.8  2.544e-12
4620.2  2.641e-12
4621.6  2.623e-12
4623.0  2.531e-12
4624.4  2.455e-12
4625.8  2.519e-12
4627.2  2.477e-12
4628.6  2.4e-12
4630.0  2.362e-12
4631.4  2.368e-12
4632.8  2.474e-12
4634.2  2.5e-12
4635.6  2.474e-12
4637.0  2.416e-12
4638.4  2.348e-12
4639.8  2.338e-12
4641.2  2.315e-12
4642.6  2.357e-12
4644.0  2.398e-12
4645.4  2.364e-12
4646.8  2.322e-12
4648.2  2.211e-12
4649.6  2.197e-12
4651.0  2.292e-12
4652.4  2.341e-12
4653.8  2.443e-12
4655.2  2.531e-12
4656.6  2.502e-12
4658.0  2.396e-12
4659.4  2.385e-12
4660.8  2.483e-12
4662.2  2.504e-12
4663.6  2.41e-12
4665.0  2.368e-12
4666.4  2.461e-12
4667.8  2.586e-12
4669.2  2.575e-12
4670.6  2.615e-12
4672.0  2.613e-12
4673.4  2.453e-12
4674.8  2.462e-12
4676.2  2.414e-12
4677.6  2.41e-12
4679.0  2.427e-12
4680.4  2.374e-12
4681.8  2.335e-12
4683.2  2.258e-12
4684.6  2.207e-12
4686.0  2.262e-12
4687.4  2.353e-12
4688.8  2.415e-12
4690.2  2.406e-12
4691.6  2.352e-12
4693.0  2.347e-12
4694.4  2.371e-12
4695.8  2.389e-12
4697.2  2.42e-12
4698.6  2.423e-12
4700.0  2.395e-12
4701.4  2.401e-12
4702.8  2.451e-12
4704.2  2.393e-12
4705.6  2.358e-12
4707.0  2.31e-12
4708.4  2.267e-12
4709.8  2.311e-12
4711.2  2.332e-12
4712.6  2.302e-12
4714.0  2.328e-12
4715.4  2.397e-12
4716.8  2.363e-12
4718.2  2.237e-12
4719.6  2.323e-12
4721.0  2.365e-12
4722.4  2.33e-12
4723.8  2.345e-12
4725.2  2.301e-12
4726.6  2.279e-12
4728.0  2.294e-12
4729.4  2.341e-12
4730.8  2.36e-12
4732.2  2.303e-12
4733.6  2.284e-12
4735.0  2.263e-12
4736.4  2.232e-12
4737.8  2.275e-12
4739.2  2.321e-12
4740.6  2.31e-12
4742.0  2.283e-12
4743.4  2.26e-12
4744.8  2.269e-12
4746.2  2.264e-12
4747.6  2.205e-12
4749.0  2.192e-12
4750.4  2.232e-12
4751.8  2.268e-12
4753.2  2.257e-12
4754.6  2.246e-12
4756.0  2.227e-12
4757.4  2.199e-12
4758.8  2.215e-12
4760.2  2.205e-12
4761.6  2.2e-12
4763.0  2.23e-12
4764.4  2.198e-12
4765.8  2.163e-12
4767.2  2.174e-12
4768.6  2.207e-12
4770.0  2.262e-12
4771.4  2.281e-12
4772.8  2.267e-12
4774.2  2.224e-12
4775.6  2.192e-12
4777.0  2.2e-12
4778.4  2.217e-12
4779.8  2.242e-12
4781.2  2.281e-12
4782.6  2.245e-12
4784.0  2.236e-12
4785.4  2.24e-12
4786.8  2.284e-12
4788.2  2.322e-12
4789.6  2.316e-12
4791.0  2.302e-12
4792.4  2.287e-12
4793.8  2.309e-12
4795.2  2.261e-12
4796.6  2.294e-12
4798.0  2.277e-12
4799.4  2.22e-12
4800.8  2.268e-12
4802.2  2.238e-12
4803.6  2.16e-12
4805.0  2.184e-12
4806.4  2.23e-12
4807.8  2.239e-12
4809.2  2.124e-12
4810.6  2.115e-12
4812.0  2.157e-12
4813.4  2.08e-12
4814.8  2.006e-12
4816.2  2.101e-12
4817.6  2.185e-12
4819.0  2.141e-12
4820.4  2.062e-12
4821.8  2.118e-12
4823.2  2.205e-12
4824.6  2.24e-12
4826.0  2.248e-12
4827.4  2.158e-12
4828.8  2.047e-12
4830.2  2.079e-12
4831.6  2.144e-12
4833.0  2.231e-12
4834.4  2.292e-12
4835.8  2.267e-12
4837.2  2.235e-12
4838.6  2.175e-12
4840.0  2.129e-12
4841.4  2.117e-12
4842.8  2.134e-12
4844.2  2.142e-12
4845.6  2.142e-12
4847.0  2.138e-12
4848.4  2.1e-12
4849.8  2.062e-12
4851.2  2.022e-12
4852.6  1.951e-12
4854.0  1.919e-12
4855.4  1.884e-12
4856.8  1.801e-12
4858.2  1.676e-12
4859.6  1.576e-12
4861.0  1.59e-12
4862.4  1.694e-12
4863.8  1.828e-12
4865.2  1.915e-12
4866.6  1.931e-12
4868.0  1.952e-12
4869.4  1.976e-12
4870.8  1.982e-12
4872.2  1.994e-12
4873.6  2.009e-12
4875.0  2.008e-12
4876.4  1.959e-12
4877.8  1.955e-12
4879.2  2.012e-12
4880.6  2.056e-12
4882.0  2.065e-12
4883.4  2.03e-12
4884.8  1.995e-12
4886.2  1.981e-12
4887.6  2.022e-12
4889.0  2.083e-12
4890.4  2.121e-12
4891.8  2.115e-12
4893.2  2.08e-12
4894.6  2.057e-12
4896.0  2.066e-12
4897.4  2.066e-12
4898.8  2.08e-12
4900.2  2.093e-12
4901.6  2.082e-12
4903.0  2.077e-12
4904.4  2.019e-12
4905.8  1.987e-12
4907.2  1.973e-12
4908.6  2.01e-12
4910.0  2.002e-12
4911.4  1.999e-12
4912.8  2.052e-12
4914.2  2.054e-12
4915.6  2.035e-12
4917.0  2.029e-12
4918.4  2.006e-12
4919.8  1.877e-12
4921.2  1.746e-12
4922.6  1.741e-12
4924.0  1.804e-12
4925.4  1.872e-12
4926.8  1.93e-12
4928.2  1.993e-12
4929.6  2.027e-12
4931.0  2.011e-12
4932.4  2.014e-12
4933.8  2.035e-12
4935.2  2.03e-12
4936.6  2.004e-12
4938.0  2.003e-12
4939.4  2.036e-12
4940.8  2.052e-12
4942.2  2.037e-12
4943.6  2.012e-12
4945.0  2.014e-12
4946.4  2.042e-12
4947.8  2.052e-12
4949.2  2.104e-12
4950.6  2.062e-12
4952.0  2.048e-12
4953.4  2.04e-12
4954.8  2.027e-12
4956.2  2.031e-12
4957.6  2.061e-12
4959.0  1.967e-12
4960.4  1.946e-12
4961.8  1.953e-12
4963.2  1.961e-12
4964.6  1.95e-12
4966.0  1.98e-12
4967.4  1.983e-12
4968.8  1.996e-12
4970.2  1.987e-12
4971.6  1.97e-12
4973.0  1.96e-12
4974.4  1.943e-12
4975.8  1.928e-12
4977.2  1.926e-12
4978.6  1.964e-12
4980.0  2.021e-12
4981.4  2.024e-12
4982.8  1.985e-12
4984.2  1.952e-12
4985.6  1.913e-12
4987.0  1.893e-12
4988.4  1.918e-12
4989.8  1.973e-12
4991.2  2.015e-12
4992.6  2.022e-12
4994.0  1.992e-12
4995.4  1.956e-12
4996.8  1.949e-12
4998.2  1.945e-12
4999.6  1.945e-12
5001.0  1.934e-12
5002.4  1.907e-12
5003.8  1.895e-12
5005.2  1.883e-12
5006.6  1.885e-12
5008.0  1.91e-12
5009.4  1.926e-12
5010.8  1.902e-12
5012.2  1.87e-12
5013.6  1.861e-12
5015.0  1.846e-12
5016.4  1.823e-12
5017.8  1.827e-12
5019.2  1.879e-12
5020.6  1.921e-12
5022.0  1.841e-12
5023.4  1.852e-12
5024.8  1.885e-12
5026.2  1.913e-12
5027.6  1.918e-12
5029.0  1.897e-12
5030.4  1.856e-12
5031.8  1.847e-12
5033.2  1.871e-12
5034.6  1.878e-12
5036.0  1.864e-12
5037.4  1.925e-12
5038.8  1.916e-12
5040.2  1.908e-12
5041.6  1.868e-12
5043.0  1.817e-12
5044.4  1.802e-12
5045.8  1.811e-12
5047.2  1.756e-12
5048.6  1.738e-12
5050.0  1.784e-12
5051.4  1.821e-12
5052.8  1.815e-12
5054.2  1.777e-12
5055.6  1.799e-12
5057.0  1.833e-12
5058.4  1.828e-12
5059.8  1.833e-12
5061.2  1.838e-12
5062.6  1.838e-12
5064.0  1.819e-12
5065.4  1.793e-12
5066.8  1.796e-12
5068.2  1.827e-12
5069.6  1.853e-12
5071.0  1.85e-12
5072.4  1.837e-12
5073.8  1.835e-12
5075.2  1.816e-12
5076.6  1.79e-12
5078.0  1.794e-12
5079.4  1.803e-12
5080.8  1.757e-12
5082.2  1.776e-12
5083.6  1.777e-12
5085.0  1.758e-12
5086.4  1.74e-12
5087.8  1.746e-12
5089.2  1.727e-12
5090.6  1.724e-12
5092.0  1.767e-12
5093.4  1.79e-12
5094.8  1.777e-12
5096.2  1.731e-12
5097.6  1.766e-12
5099.0  1.771e-12
5100.4  1.767e-12
5101.8  1.778e-12
5103.2  1.795e-12
5104.6  1.786e-12
5106.0  1.791e-12
5107.4  1.781e-12
5108.8  1.754e-12
5110.2  1.736e-12
5111.6  1.769e-12
5113.0  1.761e-12
5114.4  1.741e-12
5115.8  1.775e-12
5117.2  1.808e-12
5118.6  1.79e-12
5120.0  1.729e-12
5121.4  1.736e-12
5122.8  1.777e-12
5124.2  1.77e-12
5125.6  1.759e-12
5127.0  1.742e-12
5128.4  1.718e-12
5129.8  1.702e-12
5131.2  1.699e-12
5132.6  1.689e-12
5134.0  1.697e-12
5135.4  1.723e-12
5136.8  1.751e-12
5138.2  1.744e-12
5139.6  1.765e-12
5141.0  1.774e-12
5142.4  1.739e-12
5143.8  1.65e-12
5145.2  1.652e-12
5146.6  1.659e-12
5148.0  1.671e-12
5149.4  1.7e-12
5150.8  1.767e-12
5152.2  1.693e-12
5153.6  1.672e-12
5155.0  1.684e-12
5156.4  1.678e-12
5157.8  1.651e-12
5159.2  1.614e-12
5160.6  1.626e-12
5162.0  1.654e-12
5163.4  1.672e-12
5164.8  1.674e-12
5166.2  1.686e-12
5167.6  1.687e-12
5169.0  1.669e-12
5170.4  1.661e-12
5171.8  1.67e-12
5173.2  1.677e-12
5174.6  1.671e-12
5176.0  1.68e-12
5177.4  1.696e-12
5178.8  1.704e-12
5180.2  1.696e-12
5181.6  1.683e-12
5183.0  1.667e-12
5184.4  1.652e-12
5185.8  1.649e-12
5187.2  1.649e-12
5188.6  1.626e-12
5190.0  1.605e-12
5191.4  1.624e-12
5192.8  1.644e-12
5194.2  1.643e-12
5195.6  1.637e-12
5197.0  1.642e-12
5198.4  1.634e-12
5199.8  1.623e-12
5201.2  1.627e-12
5202.6  1.62e-12
5204.0  1.56e-12
5205.4  1.56e-12
5206.8  1.586e-12
5208.2  1.611e-12
5209.6  1.576e-12
5211.0  1.593e-12
5212.4  1.622e-12
5213.8  1.621e-12
5215.2  1.567e-12
5216.6  1.597e-12
5218.0  1.567e-12
5219.4  1.589e-12
5220.8  1.62e-12
5222.2  1.615e-12
5223.6  1.643e-12
5225.0  1.618e-12
5226.4  1.6e-12
5227.8  1.595e-12
5229.2  1.567e-12
5230.6  1.593e-12
5232.0  1.613e-12
5233.4  1.597e-12
5234.8  1.567e-12
5236.2  1.597e-12
5237.6  1.609e-12
5239.0  1.592e-12
5240.4  1.599e-12
5241.8  1.619e-12
5243.2  1.617e-12
5244.6  1.595e-12
5246.0  1.582e-12
5247.4  1.582e-12
5248.8  1.557e-12
5250.2  1.533e-12
5251.6  1.537e-12
5253.0  1.532e-12
5254.4  1.523e-12
5255.8  1.536e-12
5257.2  1.557e-12
5258.6  1.559e-12
5260.0  1.573e-12
5261.4  1.562e-12
5262.8  1.56e-12
5264.2  1.567e-12
5265.6  1.498e-12
5267.0  1.478e-12
5268.4  1.488e-12
5269.8  1.512e-12
5271.2  1.533e-12
5272.6  1.52e-12
5274.0  1.504e-12
5275.4  1.503e-12
5276.8  1.51e-12
5278.2  1.523e-12
5279.6  1.515e-12
5281.0  1.509e-12
5282.4  1.512e-12
5283.8  1.514e-12
5285.2  1.522e-12
5286.6  1.522e-12
5288.0  1.522e-12
5289.4  1.509e-12
5290.8  1.502e-12
5292.2  1.509e-12
5293.6  1.526e-12
5295.0  1.551e-12
5296.4  1.599e-12
5297.8  1.62e-12
5299.2  1.607e-12
5300.6  1.578e-12
5302.0  1.545e-12
5303.4  1.511e-12
5304.8  1.505e-12
5306.2  1.514e-12
5307.6  1.494e-12
5309.0  1.479e-12
5310.4  1.495e-12
5311.8  1.505e-12
5313.2  1.486e-12
5314.6  1.479e-12
5316.0  1.498e-12
5317.4  1.498e-12
5318.8  1.488e-12
5320.2  1.49e-12
5321.6  1.506e-12
5323.0  1.522e-12
5324.4  1.543e-12
5325.8  1.552e-12
5327.2  1.525e-12
5328.6  1.473e-12
5330.0  1.51e-12
5331.4  1.528e-12
5332.8  1.524e-12
5334.2  1.509e-12
5335.6  1.478e-12
5337.0  1.471e-12
5338.4  1.473e-12
5339.8  1.491e-12
5341.2  1.517e-12
5342.6  1.512e-12
5344.0  1.506e-12
5345.4  1.497e-12
5346.8  1.508e-12
5348.2  1.507e-12
5349.6  1.498e-12
5351.0  1.48e-12
5352.4  1.484e-12
5353.8  1.482e-12
5355.2  1.479e-12
5356.6  1.477e-12
5358.0  1.465e-12
5359.4  1.495e-12
5360.8  1.514e-12
5362.2  1.51e-12
5363.6  1.498e-12
5365.0  1.438e-12
5366.4  1.438e-12
5367.8  1.456e-12
5369.2  1.44e-12
5370.6  1.445e-12
5372.0  1.438e-12
5373.4  1.419e-12
5374.8  1.417e-12
5376.2  1.404e-12
5377.6  1.403e-12
5379.0  1.411e-12
5380.4  1.406e-12
5381.8  1.418e-12
5383.2  1.402e-12
5384.6  1.383e-12
5386.0  1.418e-12
5387.4  1.412e-12
5388.8  1.399e-12
5390.2  1.398e-12
5391.6  1.404e-12
5393.0  1.407e-12
5394.4  1.407e-12
5395.8  1.396e-12
5397.2  1.401e-12
5398.6  1.435e-12
5400.0  1.443e-12
5401.4  1.415e-12
5402.8  1.407e-12
5404.2  1.413e-12
5405.6  1.426e-12
5407.0  1.42e-12
5408.4  1.392e-12
5409.8  1.36e-12
5411.2  1.355e-12
5412.6  1.379e-12
5414.0  1.345e-12
5415.4  1.361e-12
5416.8  1.384e-12
5418.2  1.398e-12
5419.6  1.421e-12
5421.0  1.391e-12
5422.4  1.387e-12
5423.8  1.409e-12
5425.2  1.392e-12
5426.6  1.365e-12
5428.0  1.366e-12
5429.4  1.381e-12
5430.8  1.392e-12
5432.2  1.371e-12
5433.6  1.359e-12
5435.0  1.363e-12
5436.4  1.348e-12
5437.8  1.352e-12
5439.2  1.375e-12
5440.6  1.376e-12
5442.0  1.367e-12
5443.4  1.364e-12
5444.8  1.357e-12
5446.2  1.333e-12
5447.6  1.303e-12
5449.0  1.303e-12
5450.4  1.331e-12
5451.8  1.327e-12
5453.2  1.325e-12
5454.6  1.318e-12
5456.0  1.311e-12
5457.4  1.32e-12
5458.8  1.347e-12
5460.2  1.355e-12
5461.6  1.367e-12
5463.0  1.375e-12
5464.4  1.355e-12
5465.8  1.324e-12
5467.2  1.286e-12
5468.6  1.319e-12
5470.0  1.325e-12
5471.4  1.321e-12
5472.8  1.325e-12
5474.2  1.347e-12
5475.6  1.327e-12
5477.0  1.307e-12
5478.4  1.296e-12
5479.8  1.28e-12
5481.2  1.291e-12
5482.6  1.3e-12
5484.0  1.303e-12
5485.4  1.274e-12
5486.8  1.271e-12
5488.2  1.278e-12
5489.6  1.27e-12
5491.0  1.253e-12
5492.4  1.27e-12
5493.8  1.286e-12
5495.2  1.291e-12
5496.6  1.317e-12
5498.0  1.321e-12
5499.4  1.33e-12
5500.8  1.353e-12
5502.2  1.352e-12
5503.6  1.335e-12
5505.0  1.304e-12
5506.4  1.286e-12
5507.8  1.284e-12
5509.2  1.3e-12
5510.6  1.316e-12
5512.0  1.296e-12
5513.4  1.278e-12
5514.8  1.267e-12
5516.2  1.269e-12
5517.6  1.298e-12
5519.0  1.315e-12
5520.4  1.309e-12
5521.8  1.282e-12
5523.2  1.232e-12
5524.6  1.242e-12
5526.0  1.264e-12
5527.4  1.29e-12
5528.8  1.286e-12
5530.2  1.281e-12
5531.6  1.28e-12
5533.0  1.277e-12
5534.4  1.258e-12
5535.8  1.272e-12
5537.2  1.26e-12
5538.6  1.233e-12
5540.0  1.229e-12
5541.4  1.231e-12
5542.8  1.225e-12
5544.2  1.221e-12
5545.6  1.235e-12
5547.0  1.237e-12
5548.4  1.247e-12
5549.8  1.254e-12
5551.2  1.254e-12
5552.6  1.265e-12
5554.0  1.266e-12
5555.4  1.259e-12
5556.8  1.247e-12
5558.2  1.231e-12
5559.6  1.234e-12
5561.0  1.239e-12
5562.4  1.252e-12
5563.8  1.272e-12
5565.2  1.273e-12
5566.6  1.255e-12
5568.0  1.234e-12
5569.4  1.236e-12
5570.8  1.26e-12
5572.2  1.282e-12
5573.6  1.297e-12
5575.0  1.286e-12
5576.4  1.268e-12
5577.8  1.272e-12
5579.2  1.266e-12
5580.6  1.257e-12
5582.0  1.242e-12
5583.4  1.217e-12
5584.8  1.203e-12
5586.2  1.209e-12
5587.6  1.212e-12
5589.0  1.211e-12
5590.4  1.215e-12
5591.8  1.226e-12
5593.2  1.229e-12
5594.6  1.25e-12
5596.0  1.229e-12
5597.4  1.203e-12
5598.8  1.17e-12
5600.2  1.161e-12
5601.6  1.185e-12
5603.0  1.198e-12
5604.4  1.206e-12
5605.8  1.208e-12
5607.2  1.239e-12
5608.6  1.224e-12
5610.0  1.191e-12
5611.4  1.183e-12
5612.8  1.193e-12
5614.2  1.196e-12
5615.6  1.193e-12
5617.0  1.178e-12
5618.4  1.157e-12
5619.8  1.168e-12
5621.2  1.182e-12
5622.6  1.184e-12
5624.0  1.191e-12
5625.4  1.174e-12
5626.8  1.16e-12
5628.2  1.17e-12
5629.6  1.167e-12
5631.0  1.152e-12
5632.4  1.141e-12
5633.8  1.146e-12
5635.2  1.159e-12
5636.6  1.188e-12
5638.0  1.219e-12
5639.4  1.199e-12
5640.8  1.178e-12
5642.2  1.171e-12
5643.6  1.161e-12
5645.0  1.172e-12
5646.4  1.169e-12
5647.8  1.162e-12
5649.2  1.166e-12
5650.6  1.157e-12
5652.0  1.141e-12
5653.4  1.138e-12
5654.8  1.143e-12
5656.2  1.147e-12
5657.6  1.143e-12
5659.0  1.138e-12
5660.4  1.153e-12
5661.8  1.182e-12
5663.2  1.186e-12
5664.6  1.161e-12
5666.0  1.13e-12
5667.4  1.134e-12
5668.8  1.146e-12
5670.2  1.13e-12
5671.6  1.129e-12
5673.0  1.141e-12
5674.4  1.147e-12
5675.8  1.151e-12
5677.2  1.138e-12
5678.6  1.129e-12
5680.0  1.128e-12
5681.4  1.12e-12
5682.8  1.131e-12
5684.2  1.149e-12
5685.6  1.16e-12
5687.0  1.141e-12
5688.4  1.135e-12
5689.8  1.145e-12
5691.2  1.135e-12
5692.6  1.126e-12
5694.0  1.135e-12
5695.4  1.123e-12
5696.8  1.093e-12
5698.2  1.085e-12
5699.6  1.081e-12
5701.0  1.086e-12
5702.4  1.084e-12
5703.8  1.076e-12
5705.2  1.095e-12
5706.6  1.119e-12
5708.0  1.127e-12
5709.4  1.125e-12
5710.8  1.125e-12
5712.2  1.14e-12
5713.6  1.123e-12
5715.0  1.086e-12
5716.4  1.083e-12
5717.8  1.083e-12
5719.2  1.064e-12
5720.6  1.069e-12
5722.0  1.078e-12
5723.4  1.091e-12
5724.8  1.101e-12
5726.2  1.15e-12
5727.6  1.113e-12
5729.0  1.078e-12
5730.4  1.07e-12
5731.8  1.076e-12
5733.2  1.096e-12
5734.6  1.085e-12
5736.0  1.071e-12
5737.4  1.077e-12
5738.8  1.064e-12
5740.2  1.051e-12
5741.6  1.062e-12
5743.0  1.072e-12
5744.4  1.08e-12
5745.8  1.075e-12
5747.2  1.071e-12
5748.6  1.081e-12
5750.0  1.088e-12
5751.4  1.086e-12
5752.8  1.089e-12
5754.2  1.094e-12
5755.6  1.083e-12
5757.0  1.06e-12
5758.4  1.059e-12
5759.8  1.064e-12
5761.2  1.056e-12
5762.6  1.065e-12
5764.0  1.065e-12
5765.4  1.054e-12
5766.8  1.05e-12
5768.2  1.059e-12
5769.6  1.069e-12
5771.0  1.06e-12
5772.4  1.04e-12
5773.8  1.054e-12
5775.2  1.062e-12
5776.6  1.04e-12
5778.0  1.017e-12
5779.4  9.737e-13
5780.8  9.644e-13
5782.2  9.693e-13
5783.6  9.777e-13
5785.0  9.969e-13
5786.4  9.936e-13
5787.8  1.021e-12
5789.2  1.036e-12
5790.6  1.046e-12
5792.0  1.053e-12
5793.4  1.042e-12
5794.8  1.017e-12
5796.2  1.013e-12
5797.6  1.015e-12
5799.0  1.019e-12
5800.4  1.005e-12
5801.8  9.931e-13
5803.2  1.003e-12
5804.6  1.018e-12
5806.0  1.018e-12
5807.4  1.029e-12
5808.8  1.019e-12
5810.2  1.012e-12
5811.6  1.015e-12
5813.0  1.018e-12
5814.4  1.037e-12
5815.8  1.036e-12
5817.2  1.014e-12
5818.6  1.005e-12
5820.0  1.017e-12
5821.4  1.037e-12
5822.8  1.045e-12
5824.2  1.043e-12
5825.6  1.035e-12
5827.0  1.017e-12
5828.4  1.017e-12
5829.8  1.042e-12
5831.2  1.045e-12
5832.6  1.029e-12
5834.0  1.013e-12
5835.4  1.014e-12
5836.8  1.027e-12
5838.2  1.053e-12
5839.6  1.044e-12
5841.0  1.025e-12
5842.4  1.004e-12
5843.8  9.807e-13
5845.2  9.619e-13
5846.6  9.739e-13
5848.0  9.874e-13
5849.4  9.996e-13
5850.8  1.001e-12
5852.2  1.024e-12
5853.6  9.977e-13
5855.0  9.77e-13
5856.4  9.911e-13
5857.8  1.027e-12
5859.2  1.029e-12
5860.6  1.026e-12
5862.0  1.007e-12
5863.4  1.003e-12
5864.8  1.017e-12
5866.2  1.035e-12
5867.6  1.024e-12
5869.0  9.994e-13
5870.4  9.906e-13
5871.8  9.7e-13
5873.2  9.315e-13
5874.6  8.686e-13
5876.0  8.541e-13
5877.4  9.023e-13
5878.8  9.392e-13
5880.2  9.489e-13
5881.6  9.518e-13
5883.0  9.453e-13
5884.4  9.336e-13
5885.8  9.18e-13
5887.2  8.777e-13
5888.6  8.53e-13
5890.0  8.772e-13
5891.4  8.986e-13
5892.8  8.923e-13
5894.2  8.916e-13
5895.6  9.25e-13
5897.0  9.457e-13
5898.4  9.444e-13
5899.8  9.609e-13
5901.2  9.671e-13
5902.6  9.583e-13
5904.0  9.533e-13
5905.4  9.885e-13
5906.8  1.003e-12
5908.2  9.834e-13
5909.6  9.671e-13
5911.0  9.658e-13
5912.4  9.516e-13
5913.8  9.664e-13
5915.2  9.583e-13
5916.6  9.561e-13
5918.0  9.595e-13
5919.4  9.579e-13
5920.8  9.233e-13
5922.2  9.088e-13
5923.6  9.047e-13
5925.0  8.952e-13
5926.4  8.856e-13
5927.8  9.117e-13
5929.2  9.328e-13
5930.6  9.3e-13
5932.0  9.273e-13
5933.4  9.438e-13
5934.8  9.275e-13
5936.2  9.363e-13
5937.6  9.528e-13
5939.0  9.449e-13
5940.4  9.362e-13
5941.8  9.036e-13
5943.2  8.887e-13
5944.6  8.916e-13
5946.0  8.897e-13
5947.4  9.062e-13
5948.8  9.18e-13
5950.2  9.066e-13
5951.6  8.951e-13
5953.0  9.054e-13
5954.4  9.128e-13
5955.8  9.184e-13
5957.2  9.388e-13
5958.6  9.601e-13
5960.0  9.534e-13
5961.4  9.377e-13
5962.8  9.203e-13
5964.2  9.038e-13
5965.6  8.992e-13
5967.0  8.993e-13
5968.4  9.094e-13
5969.8  9.114e-13
5971.2  9.064e-13
5972.6  9.054e-13
5974.0  9.153e-13
5975.4  9.349e-13
5976.8  9.108e-13
5978.2  8.97e-13
5979.6  8.969e-13
5981.0  9.088e-13
5982.4  9.365e-13
5983.8  9.233e-13
5985.2  9.268e-13
5986.6  9.085e-13
5988.0  8.927e-13
5989.4  9.088e-13
5990.8  9.216e-13
5992.2  9.4e-13
5993.6  9.326e-13
5995.0  9.205e-13
5996.4  9.209e-13
5997.8  9.189e-13
5999.2  8.976e-13
6000.6  8.905e-13
6002.0  8.961e-13
6003.4  8.981e-13
6004.8  8.931e-13
6006.2  8.822e-13
6007.6  8.648e-13
6009.0  8.508e-13
6010.4  8.646e-13
6011.8  8.897e-13
6013.2  9.001e-13
6014.6  8.942e-13
6016.0  8.862e-13
6017.4  8.938e-13
6018.8  9.001e-13
6020.2  8.999e-13
6021.6  9.018e-13
6023.0  9.004e-13
6024.4  8.992e-13
6025.8  8.998e-13
6027.2  8.956e-13
6028.6  8.833e-13
6030.0  8.717e-13
6031.4  8.7e-13
6032.8  8.558e-13
6034.2  8.78e-13
6035.6  8.772e-13
6037.0  8.766e-13
6038.4  8.9e-13
6039.8  8.827e-13
6041.2  8.745e-13
6042.6  8.783e-13
6044.0  8.817e-13
6045.4  8.89e-13
6046.8  8.904e-13
6048.2  8.969e-13
6049.6  8.928e-13
6051.0  9.18e-13
6052.4  9.158e-13
6053.8  8.792e-13
6055.2  8.567e-13
6056.6  8.568e-13
6058.0  8.703e-13
6059.4  8.741e-13
6060.8  8.704e-13
6062.2  8.739e-13
6063.6  8.688e-13
6065.0  8.632e-13
6066.4  8.553e-13
6067.8  8.44e-13
6069.2  8.504e-13
6070.6  8.571e-13
6072.0  8.767e-13
6073.4  8.879e-13
6074.8  8.731e-13
6076.2  8.588e-13
6077.6  8.433e-13
6079.0  8.583e-13
6080.4  8.729e-13
6081.8  8.656e-13
6083.2  8.646e-13
6084.6  8.727e-13
6086.0  8.669e-13
6087.4  8.697e-13
6088.8  8.836e-13
6090.2  8.942e-13
6091.6  8.977e-13
6093.0  8.778e-13
6094.4  8.566e-13
6095.8  8.479e-13
6097.2  8.422e-13
6098.6  8.351e-13
6100.0  8.352e-13
6101.4  8.518e-13
6102.8  8.526e-13
6104.2  8.346e-13
6105.6  8.254e-13
6107.0  8.228e-13
6108.4  8.273e-13
6109.8  8.344e-13
6111.2  8.309e-13
6112.6  8.362e-13
6114.0  8.534e-13
6115.4  8.467e-13
6116.8  8.335e-13
6118.2  8.493e-13
6119.6  8.52e-13
6121.0  8.37e-13
6122.4  8.563e-13
6123.8  8.681e-13
6125.2  8.392e-13
6126.6  8.187e-13
6128.0  8.334e-13
6129.4  8.209e-13
6130.8  8.198e-13
6132.2  8.22e-13
6133.6  8.084e-13
6135.0  7.933e-13
6136.4  8.002e-13
6137.8  8.287e-13
6139.2  8.352e-13
6140.6  8.331e-13
6142.0  8.358e-13
6143.4  8.318e-13
6144.8  8.227e-13
6146.2  8.092e-13
6147.6  8.251e-13
6149.0  8.421e-13
6150.4  8.289e-13
6151.8  8.196e-13
6153.2  8.436e-13
6154.6  8.563e-13
6156.0  8.45e-13
6157.4  8.289e-13
6158.8  8.202e-13
6160.2  8.334e-13
6161.6  8.48e-13
6163.0  8.405e-13
6164.4  8.172e-13
6165.8  8.057e-13
6167.2  8.044e-13
6168.6  7.839e-13
6170.0  7.717e-13
6171.4  7.752e-13
6172.8  7.769e-13
6174.2  7.908e-13
6175.6  7.931e-13
6177.0  8.099e-13
6178.4  8.154e-13
6179.8  8.094e-13
6181.2  8.125e-13
6182.6  8.09e-13
6184.0  8.154e-13
6185.4  7.993e-13
6186.8  7.889e-13
6188.2  7.968e-13
6189.6  8.036e-13
6191.0  7.968e-13
6192.4  7.899e-13
6193.8  7.971e-13
6195.2  8.138e-13
6196.6  8.278e-13
6198.0  8.3e-13
6199.4  8.157e-13
6200.8  7.887e-13
6202.2  7.748e-13
6203.6  7.752e-13
6205.0  7.841e-13
6206.4  7.976e-13
6207.8  8.012e-13
6209.2  7.924e-13
6210.6  7.888e-13
6212.0  7.874e-13
6213.4  7.842e-13
6214.8  7.89e-13
6216.2  7.911e-13
6217.6  7.899e-13
6219.0  7.947e-13
6220.4  7.988e-13
6221.8  7.913e-13
6223.2  7.865e-13
6224.6  7.864e-13
6226.0  7.937e-13
6227.4  8.132e-13
6228.8  8.212e-13
6230.2  7.888e-13
6231.6  7.975e-13
6233.0  8.142e-13
6234.4  8.128e-13
6235.8  7.987e-13
6237.2  7.809e-13
6238.6  7.638e-13
6240.0  7.722e-13
6241.4  7.874e-13
6242.8  7.909e-13
6244.2  7.861e-13
6245.6  7.846e-13
6247.0  7.873e-13
6248.4  7.886e-13
6249.8  8e-13
6251.2  7.968e-13
6252.6  7.754e-13
6254.0  7.701e-13
6255.4  7.908e-13
6256.8  7.898e-13
6258.2  7.652e-13
6259.6  7.388e-13
6261.0  7.091e-13
6262.4  6.847e-13
6263.8  6.838e-13
6265.2  7.049e-13
6266.6  7.265e-13
6268.0  7.353e-13
6269.4  7.33e-13
6270.8  7.342e-13
6272.2  7.477e-13
6273.6  7.628e-13
6275.0  7.576e-13
6276.4  7.328e-13
6277.8  7.105e-13
6279.2  6.878e-13
6280.6  6.821e-13
6282.0  6.884e-13
6283.4  6.797e-13
6284.8  6.863e-13
6286.2  7.054e-13
6287.6  7.308e-13
6289.0  7.567e-13
6290.4  7.618e-13
6291.8  7.439e-13
6293.2  7.625e-13
6294.6  7.634e-13
6296.0  7.373e-13
6297.4  7.214e-13
6298.8  7.29e-13
6300.2  7.337e-13
6301.6  7.39e-13
6303.0  7.558e-13
6304.4  7.553e-13
6305.8  7.359e-13
6307.2  7.24e-13
6308.6  7.183e-13
6310.0  7.086e-13
6311.4  7.136e-13
6312.8  7.305e-13
6314.2  7.337e-13
6315.6  7.297e-13
6317.0  7.375e-13
6318.4  7.44e-13
6319.8  7.374e-13
6321.2  7.313e-13
6322.6  7.304e-13
6324.0  7.427e-13
6325.4  7.568e-13
6326.8  7.646e-13
6328.2  7.607e-13
6329.6  7.353e-13
6331.0  7.278e-13
6332.4  7.407e-13
6333.8  7.506e-13
6335.2  7.521e-13
6336.6  7.546e-13
6338.0  7.495e-13
6339.4  7.468e-13
6340.8  7.428e-13
6342.2  7.261e-13
6343.6  7.124e-13
6345.0  7.135e-13
6346.4  7.247e-13
6347.8  7.278e-13
6349.2  7.207e-13
6350.6  7.268e-13
6352.0  7.323e-13
6353.4  7.229e-13
6354.8  7.087e-13
6356.2  7.096e-13
6357.6  7.283e-13
6359.0  7.385e-13
6360.4  7.385e-13
6361.8  7.471e-13
6363.2  7.507e-13
6364.6  7.329e-13
6366.0  7.127e-13
6367.4  7.112e-13
6368.8  7.122e-13
6370.2  7.074e-13
6371.6  7.14e-13
6373.0  7.195e-13
6374.4  7.065e-13
6375.8  6.968e-13
6377.2  7.05e-13
6378.6  6.964e-13
6380.0  6.859e-13
6381.4  6.973e-13
6382.8  7.158e-13
6384.2  7.122e-13
6385.6  7.105e-13
6387.0  7.076e-13
6388.4  7.097e-13
6389.8  7.151e-13
6391.2  7.064e-13
6392.6  7.131e-13
6394.0  7.084e-13
6395.4  7.057e-13
6396.8  7.178e-13
6398.2  7.243e-13
6399.6  7.196e-13
6401.0  7.242e-13
6402.4  7.186e-13
6403.8  7.126e-13
6405.2  7.338e-13
6406.6  7.368e-13
6408.0  7.144e-13
6409.4  6.87e-13
6410.8  6.724e-13
6412.2  6.789e-13
6413.6  6.875e-13
6415.0  6.874e-13
6416.4  6.795e-13
6417.8  6.825e-13
6419.2  6.964e-13
6420.6  6.346e-13
6422.0  4.927e-13
6423.4  4.706e-13
6424.8  6.209e-13
6426.2  7.123e-13
6427.6  7.007e-13
6429.0  7.113e-13
6430.4  6.991e-13
6431.8  6.888e-13
6433.2  6.967e-13
6434.6  7.063e-13
6436.0  7.03e-13
6437.4  7.086e-13
6438.8  7.057e-13
6440.2  7.076e-13
6441.6  7.1e-13
6443.0  7.017e-13
6444.4  7.14e-13
6445.8  6.941e-13
6447.2  6.702e-13
6448.6  6.665e-13
6450.0  6.643e-13
6451.4  6.699e-13
6452.8  6.956e-13
6454.2  7.124e-13
6455.6  7.096e-13
6457.0  6.999e-13
6458.4  6.806e-13
6459.8  6.685e-13
6461.2  6.694e-13
6462.6  6.713e-13
6464.0  6.782e-13
6465.4  7.051e-13
6466.8  7.15e-13
6468.2  7.023e-13
6469.6  6.975e-13
6471.0  6.851e-13
6472.4  6.699e-13
6473.8  6.73e-13
6475.2  6.787e-13
6476.6  6.752e-13
6478.0  6.653e-13
6479.4  6.65e-13
6480.8  6.812e-13
6482.2  6.845e-13
6483.6  6.771e-13
6485.0  6.712e-13
6486.4  6.615e-13
6487.8  6.503e-13
6489.2  6.536e-13
6490.6  6.53e-13
6492.0  6.496e-13
6493.4  6.653e-13
6494.8  6.7e-13
6496.2  6.775e-13
6497.6  6.869e-13
6499.0  6.853e-13
6500.4  6.805e-13
6501.8  6.69e-13
6503.2  6.654e-13
6504.6  6.644e-13
6506.0  6.523e-13
6507.4  6.501e-13
6508.8  6.561e-13
6510.2  6.603e-13
6511.6  6.676e-13
6513.0  6.666e-13
6514.4  6.575e-13
6515.8  6.509e-13
6517.2  6.494e-13
6518.6  6.518e-13
6520.0  6.573e-13
6521.4  6.563e-13
6522.8  6.452e-13
6524.2  6.361e-13
6525.6  6.363e-13
6527.0  6.375e-13
6528.4  6.245e-13
6529.8  6.141e-13
6531.2  6.278e-13
6532.6  6.347e-13
6534.0  6.3e-13
6535.4  6.459e-13
6536.8  6.466e-13
6538.2  6.456e-13
6539.6  6.504e-13
6541.0  6.503e-13
6542.4  6.523e-13
6543.8  6.488e-13
6545.2  6.458e-13
6546.6  6.399e-13
6548.0  6.274e-13
6549.4  6.217e-13
6550.8  6.23e-13
6552.2  6.248e-13
6553.6  6.307e-13
6555.0  6.273e-13
6556.4  6.241e-13
6557.8  6.221e-13
6559.2  6.114e-13
6560.6  5.881e-13
6562.0  5.516e-13
6563.4  5.242e-13
6564.8  5.271e-13
6566.2  5.552e-13
6567.6  5.823e-13
6569.0  5.923e-13
6570.4  5.981e-13
6571.8  6.132e-13
6573.2  6.292e-13
6574.6  6.298e-13
6576.0  6.206e-13
6577.4  6.244e-13
6578.8  6.4e-13
6580.2  6.501e-13
6581.6  6.502e-13
6583.0  6.429e-13
6584.4  6.45e-13
6585.8  6.582e-13
6587.2  6.634e-13
6588.6  6.503e-13
6590.0  6.28e-13
6591.4  6.154e-13
6592.8  6.17e-13
6594.2  6.264e-13
6595.6  6.317e-13
6597.0  6.304e-13
6598.4  6.324e-13
6599.8  6.336e-13
6601.2  6.54e-13
6602.6  6.7e-13
6604.0  6.644e-13
6605.4  6.582e-13
6606.8  6.622e-13
6608.2  6.607e-13
6609.6  6.437e-13
6611.0  6.109e-13
6612.4  6.036e-13
6613.8  6.147e-13
6615.2  6.223e-13
6616.6  6.208e-13
6618.0  6.11e-13
6619.4  6.1e-13
6620.8  6.23e-13
6622.2  6.358e-13
6623.6  6.356e-13
6625.0  6.233e-13
6626.4  6.178e-13
6627.8  6.31e-13
6629.2  6.429e-13
6630.6  6.286e-13
6632.0  6.043e-13
6633.4  6.01e-13
6634.8  6.081e-13
6636.2  6.091e-13
6637.6  6.066e-13
6639.0  6.011e-13
6640.4  5.957e-13
6641.8  6.066e-13
6643.2  6.251e-13
6644.6  6.116e-13
6646.0  6.11e-13
6647.4  6.255e-13
6648.8  6.173e-13
6650.2  6.095e-13
6651.6  6.135e-13
6653.0  6.212e-13
6654.4  6.174e-13
6655.8  6.109e-13
6657.2  6.247e-13
6658.6  6.43e-13
6660.0  6.369e-13
6661.4  6.23e-13
6662.8  6.198e-13
6664.2  6.275e-13
6665.6  6.393e-13
6667.0  6.446e-13
6668.4  6.346e-13
6669.8  6.248e-13
6671.2  6.269e-13
6672.6  6.209e-13
6674.0  6.083e-13
6675.4  5.918e-13
6676.8  5.608e-13
6678.2  5.279e-13
6679.6  5.289e-13
6681.0  5.568e-13
6682.4  5.772e-13
6683.8  6.008e-13
6685.2  6.225e-13
6686.6  6.273e-13
6688.0  6.172e-13
6689.4  6.105e-13
6690.8  6.071e-13
6692.2  6.008e-13
6693.6  5.978e-13
6695.0  6.052e-13
6696.4  6.161e-13
6697.8  6.14e-13
6699.2  6.028e-13
6700.6  6.126e-13
6702.0  6.185e-13
6703.4  6.01e-13
6704.8  5.997e-13
6706.2  6.096e-13
6707.6  6.14e-13
6709.0  6.025e-13
6710.4  5.926e-13
6711.8  5.952e-13
6713.2  5.991e-13
6714.6  5.962e-13
6716.0  5.993e-13
6717.4  5.981e-13
6718.8  6.017e-13
6720.2  6.166e-13
6721.6  6.232e-13
6723.0  6.051e-13
6724.4  5.918e-13
6725.8  6.05e-13
6727.2  6.113e-13
6728.6  5.995e-13
6730.0  5.909e-13
6731.4  5.902e-13
6732.8  5.941e-13
6734.2  5.899e-13
6735.6  5.783e-13
6737.0  5.827e-13
6738.4  5.992e-13
6739.8  6.12e-13
6741.2  6.142e-13
6742.6  6.097e-13
6744.0  5.978e-13
6745.4  5.882e-13
6746.8  5.871e-13
6748.2  5.875e-13
6749.6  5.959e-13
6751.0  6.102e-13
6752.4  6.158e-13
6753.8  6.004e-13
6755.2  5.919e-13
6756.6  5.892e-13
6758.0  5.852e-13
6759.4  5.807e-13
6760.8  5.747e-13
6762.2  5.736e-13
6763.6  5.798e-13
6765.0  5.89e-13
6766.4  6.037e-13
6767.8  6.104e-13
6769.2  5.987e-13
6770.6  5.794e-13
6772.0  5.709e-13
6773.4  5.771e-13
6774.8  5.867e-13
6776.2  5.857e-13
6777.6  5.831e-13
6779.0  5.842e-13
6780.4  5.788e-13
6781.8  5.751e-13
6783.2  5.809e-13
6784.6  5.867e-13
6786.0  5.881e-13
6787.4  5.9e-13
6788.8  5.887e-13
6790.2  5.865e-13
6791.6  5.971e-13
6793.0  6.02e-13
6794.4  5.938e-13
6795.8  5.782e-13
6797.2  5.623e-13
6798.6  5.605e-13
6800.0  5.717e-13
6801.4  5.84e-13
6802.8  5.978e-13
6804.2  5.931e-13
6805.6  5.796e-13
6807.0  5.767e-13
6808.4  5.672e-13
6809.8  5.722e-13
6811.2  5.818e-13
6812.6  5.83e-13
6814.0  5.815e-13
6815.4  5.747e-13
6816.8  5.701e-13
6818.2  5.722e-13
6819.6  5.781e-13
6821.0  5.917e-13
6822.4  5.987e-13
6823.8  5.916e-13
6825.2  5.842e-13
6826.6  5.761e-13
6828.0  5.663e-13
6829.4  5.614e-13
6830.8  5.61e-13
6832.2  5.642e-13
6833.6  5.635e-13
6835.0  5.539e-13
6836.4  5.466e-13
6837.8  5.483e-13
6839.2  5.537e-13
6840.6  5.643e-13
6842.0  5.849e-13
6843.4  5.872e-13
6844.8  5.627e-13
6846.2  5.501e-13
6847.6  5.519e-13
6849.0  5.584e-13
6850.4  5.566e-13
6851.8  5.531e-13
6853.2  5.538e-13
6854.6  5.527e-13
6856.0  5.476e-13
6857.4  5.468e-13
6858.8  5.562e-13
6860.2  5.604e-13
6861.6  5.572e-13
6863.0  5.645e-13
6864.4  5.586e-13
6865.8  5.312e-13
6867.2  4.8e-13
6868.6  4.18e-13
6870.0  3.949e-13
6871.4  3.968e-13
6872.8  4.032e-13
6874.2  4.139e-13
6875.6  4.251e-13
6877.0  4.499e-13
6878.4  4.838e-13
6879.8  5.061e-13
6881.2  5.115e-13
6882.6  5.102e-13
6884.0  5.088e-13
6885.4  5.034e-13
6886.8  4.913e-13
6888.2  4.779e-13
6889.6  4.736e-13
6891.0  4.793e-13
6892.4  4.833e-13
6893.8  4.855e-13
6895.2  4.948e-13
6896.6  5.091e-13
6898.0  5.188e-13
6899.4  5.087e-13
6900.8  4.895e-13
6902.2  4.956e-13
6903.6  5.056e-13
6905.0  5.139e-13
6906.4  5.197e-13
6907.8  5.148e-13
6909.2  5.114e-13
6910.6  5.18e-13
6912.0  5.264e-13
6913.4  5.221e-13
6914.8  5.167e-13
6916.2  5.203e-13
6917.6  5.281e-13
6919.0  5.284e-13
6920.4  5.304e-13
6921.8  5.305e-13
6923.2  5.191e-13
6924.6  5.084e-13
6926.0  5.333e-13
6927.4  5.501e-13
6928.8  5.431e-13
6930.2  5.343e-13
6931.6  5.299e-13
6933.0  5.306e-13
6934.4  5.316e-13
6935.8  5.299e-13
6937.2  5.311e-13
6938.6  5.34e-13
6940.0  5.38e-13
6941.4  5.384e-13
6942.8  5.273e-13
6944.2  5.24e-13
6945.6  5.312e-13
6947.0  5.308e-13
6948.4  5.315e-13
6949.8  5.302e-13
6951.2  5.288e-13
6952.6  5.3e-13
6954.0  5.317e-13
6955.4  5.328e-13
6956.8  5.345e-13
6958.2  5.364e-13
6959.6  5.321e-13
6961.0  5.271e-13
6962.4  5.367e-13
6963.8  5.54e-13
6965.2  5.536e-13
6966.6  5.463e-13
6968.0  5.458e-13
6969.4  5.44e-13
6970.8  5.327e-13
6972.2  5.193e-13
6973.6  5.232e-13
6975.0  5.354e-13
6976.4  5.454e-13
6977.8  5.65e-13
6979.2  5.615e-13
6980.6  5.476e-13
6982.0  5.529e-13
6983.4  5.632e-13
6984.8  5.55e-13
6986.2  5.338e-13
6987.6  5.189e-13
6989.0  5.162e-13
6990.4  5.213e-13
6991.8  5.224e-13
6993.2  5.226e-13
6994.6  5.269e-13
6996.0  5.215e-13
6997.4  5.21e-13
6998.8  5.306e-13
7000.2  5.297e-13
7001.6  5.302e-13
7003.0  5.347e-13
7004.4  5.339e-13
7005.8  5.24e-13
7007.2  5.315e-13
7008.6  5.435e-13
7010.0  5.524e-13
7011.4  5.575e-13
7012.8  5.54e-13
7014.2  5.44e-13
7015.6  5.332e-13
7017.0  5.285e-13
7018.4  5.337e-13
7019.8  5.412e-13
7021.2  5.44e-13
7022.6  5.366e-13
7024.0  5.278e-13
7025.4  5.309e-13
7026.8  5.291e-13
7028.2  5.266e-13
7029.6  5.339e-13
7031.0  5.439e-13
7032.4  5.413e-13
7033.8  5.291e-13
7035.2  5.286e-13
7036.6  5.413e-13
7038.0  5.416e-13
7039.4  5.139e-13
7040.8  4.992e-13
7042.2  5.155e-13
7043.6  5.292e-13
7045.0  5.395e-13
7046.4  5.515e-13
7047.8  5.519e-13
7049.2  5.329e-13
7050.6  5.169e-13
7052.0  5.187e-13
7053.4  5.269e-13
7054.8  5.305e-13
7056.2  5.461e-13
7057.6  5.487e-13
7059.0  5.246e-13
7060.4  5.022e-13
7061.8  5.222e-13
7063.2  5.313e-13
7064.6  4.994e-13
7066.0  4.652e-13
7067.4  4.698e-13
7068.8  4.815e-13
7070.2  4.877e-13
7071.6  5.019e-13
7073.0  5.277e-13
7074.4  5.486e-13
7075.8  5.478e-13
7077.2  5.347e-13
7078.6  5.167e-13
7080.0  5.101e-13
7081.4  5.22e-13
7082.8  5.21e-13
7084.2  5.221e-13
7085.6  5.189e-13
7087.0  5.075e-13
7088.4  5.103e-13
7089.8  5.133e-13
7091.2  5.184e-13
7092.6  5.303e-13
7094.0  5.315e-13
7095.4  5.286e-13
7096.8  5.351e-13
7098.2  5.413e-13
7099.6  5.324e-13
7101.0  5.236e-13
7102.4  5.232e-13
7103.8  5.258e-13
7105.2  5.241e-13
7106.6  5.279e-13
7108.0  5.362e-13
7109.4  5.28e-13
7110.8  5.209e-13
7112.2  5.353e-13
7113.6  5.452e-13
7115.0  5.38e-13
7116.4  5.298e-13
7117.8  5.311e-13
7119.2  5.349e-13
7120.6  5.339e-13
7122.0  5.373e-13
7123.4  5.35e-13
7124.8  5.254e-13
7126.2  5.192e-13
7127.6  5.131e-13
7129.0  5.176e-13
7130.4  5.377e-13
7131.8  5.439e-13
7133.2  5.266e-13
7134.6  5.274e-13
7136.0  5.242e-13
7137.4  5.198e-13
7138.8  5.195e-13
7140.2  5.05e-13
7141.6  4.86e-13
7143.0  4.794e-13
7144.4  4.85e-13
7145.8  4.993e-13
7147.2  5.108e-13
7148.6  5.042e-13
7150.0  5.027e-13
7151.4  5.186e-13
7152.8  5.24e-13
7154.2  5.221e-13
7155.6  5.192e-13
7157.0  5.137e-13
7158.4  4.998e-13
7159.8  4.843e-13
7161.2  4.993e-13
7162.6  5.12e-13
7164.0  5.003e-13
7165.4  4.897e-13
7166.8  4.992e-13
7168.2  4.883e-13
7169.6  4.711e-13
7171.0  4.54e-13
7172.4  4.467e-13
7173.8  4.534e-13
7175.2  4.555e-13
7176.6  4.453e-13
7178.0  4.41e-13
7179.4  4.499e-13
7180.8  4.613e-13
7182.2  4.675e-13
7183.6  4.637e-13
7185.0  4.371e-13
7186.4  4.228e-13
7187.8  4.474e-13
7189.2  4.612e-13
7190.6  4.405e-13
7192.0  4.271e-13
7193.4  4.432e-13
7194.8  4.665e-13
7196.2  4.731e-13
7197.6  4.587e-13
7199.0  4.424e-13
7200.4  4.461e-13
7201.8  4.549e-13
7203.2  4.454e-13
7204.6  4.406e-13
7206.0  4.654e-13
7207.4  4.843e-13
7208.8  4.784e-13
7210.2  4.985e-13
7211.6  5.094e-13
7213.0  4.906e-13
7214.4  4.85e-13
7215.8  4.924e-13
7217.2  5.036e-13
7218.6  5.021e-13
7220.0  4.977e-13
7221.4  4.965e-13
7222.8  4.778e-13
7224.2  4.862e-13
7225.6  4.939e-13
7227.0  4.91e-13
7228.4  4.892e-13
7229.8  4.822e-13
7231.2  4.638e-13
7232.6  4.549e-13
7234.0  4.575e-13
7235.4  4.709e-13
7236.8  4.88e-13
7238.2  4.806e-13
7239.6  4.451e-13
7241.0  4.389e-13
7242.4  4.639e-13
7243.8  4.869e-13
7245.2  5.027e-13
7246.6  4.796e-13
7248.0  4.485e-13
7249.4  4.474e-13
7250.8  4.403e-13
7252.2  4.358e-13
7253.6  4.533e-13
7255.0  4.658e-13
7256.4  4.569e-13
7257.8  4.524e-13
7259.2  4.456e-13
7260.6  4.474e-13
7262.0  4.516e-13
7263.4  4.442e-13
7264.8  4.404e-13
7266.2  4.676e-13
7267.6  4.843e-13
7269.0  4.824e-13
7270.4  4.734e-13
7271.8  4.59e-13
7273.2  4.543e-13
7274.6  4.188e-13
7276.0  4.028e-13
7277.4  4.308e-13
7278.8  4.534e-13
7280.2  4.522e-13
7281.6  4.38e-13
7283.0  4.371e-13
7284.4  4.556e-13
7285.8  4.691e-13
7287.2  4.574e-13
7288.6  4.409e-13
7290.0  4.276e-13
7291.4  4.348e-13
7292.8  4.539e-13
7294.2  4.601e-13
7295.6  4.492e-13
7297.0  4.435e-13
7298.4  4.474e-13
7299.8  4.491e-13
7301.2  4.463e-13
7302.6  4.31e-13
7304.0  4.249e-13
7305.4  4.391e-13
7306.8  4.399e-13
7308.2  4.346e-13
7309.6  4.45e-13
7311.0  4.644e-13
7312.4  4.633e-13
7313.8  4.464e-13
7315.2  4.378e-13
7316.6  4.258e-13
7318.0  4.256e-13
7319.4  4.312e-13
7320.8  4.411e-13
7322.2  4.785e-13
7323.6  4.74e-13
7325.0  4.791e-13
7326.4  4.92e-13
7327.8  4.731e-13
7329.2  4.552e-13
7330.6  4.612e-13
7332.0  4.584e-13
7333.4  4.472e-13
7334.8  4.454e-13
7336.2  4.574e-13
7337.6  4.646e-13
7339.0  4.688e-13
7340.4  4.706e-13
7341.8  4.639e-13
7343.2  4.521e-13
7344.6  4.549e-13
7346.0  4.559e-13
7347.4  4.486e-13
7348.8  4.54e-13
7350.2  4.742e-13
7351.6  4.859e-13
7353.0  4.768e-13
7354.4  4.648e-13
7355.8  4.569e-13
7357.2  4.48e-13
7358.6  4.444e-13
7360.0  4.464e-13
7361.4  4.506e-13
7362.8  4.618e-13
7364.2  4.641e-13
7365.6  4.573e-13
7367.0  4.555e-13
7368.4  4.512e-13
7369.8  4.393e-13
7371.2  4.393e-13
7372.6  4.466e-13
7374.0  4.643e-13
7375.4  5.069e-13
7376.8  4.926e-13
7378.2  4.583e-13
7379.6  4.479e-13
7381.0  4.549e-13
7382.4  4.616e-13
7383.8  4.654e-13
7385.2  4.51e-13
7386.6  4.448e-13
7388.0  4.489e-13
7389.4  4.447e-13
7390.8  4.415e-13
7392.2  4.38e-13
7393.6  4.398e-13
7395.0  4.513e-13
7396.4  4.432e-13
7397.8  4.437e-13
7399.2  4.552e-13
7400.6  4.493e-13
7402.0  4.401e-13
7403.4  4.323e-13
7404.8  4.248e-13
7406.2  4.204e-13
7407.6  4.148e-13
7409.0  4.12e-13
7410.4  4.123e-13
7411.8  4.186e-13
7413.2  4.25e-13
7414.6  4.21e-13
7416.0  4.171e-13
7417.4  4.192e-13
7418.8  4.224e-13
7420.2  4.132e-13
7421.6  4.22e-13
7423.0  4.359e-13
7424.4  4.323e-13
7425.8  4.417e-13
7427.2  4.468e-13
